time (s)	coil I (A)	last det (V)	int current (uC)
7951.584628	3.266554	27.734375	-361.230469
7951.586629	3.267151	27.734375	-361.230469
7951.588629	3.266826	27.734375	-361.230469
7951.590629	3.266787	35.934654	0.111814
7952.629607	3.263806	109.863281	26.464844
7952.631611	3.266889	109.863281	26.464844
7952.633614	3.267169	109.863281	26.464844
7952.635613	3.266785	109.863281	26.464844
7952.637613	3.266661	35.933266	0.070127
7953.665645	3.266095	23.925781	-368.066406
7953.667648	3.266997	23.925781	-368.066406
7953.669649	3.266643	23.925781	-368.066406
7953.671645	3.266521	35.931736	0.114234
7954.719711	3.265371	111.328125	25.488281
7954.721712	3.267149	111.328125	25.488281
7954.723713	3.267035	111.328125	25.488281
7954.725713	3.266681	35.933491	0.071665
7955.751759	3.266583	23.242187	-369.921875
7955.753760	3.267163	23.242187	-369.921875
7955.755761	3.266888	23.242187	-369.921875
7955.757759	3.266774	35.934509	0.117892
7956.801826	3.266495	111.425781	23.535156
7956.803828	3.267228	111.425781	23.535156
7956.805828	3.266774	111.425781	23.535156
7956.807827	3.266727	35.933998	0.069713
7957.835851	3.266790	26.074219	-365.625000
7957.837854	3.266753	26.074219	-365.625000
7957.839854	3.266500	35.931496	0.113222
7958.878433	3.266469	110.937500	26.171875
7958.880436	3.267207	110.937500	26.171875
7958.882434	3.266912	110.937500	26.171875
7958.884434	3.266786	35.934643	0.076176
7959.916998	3.266675	28.808594	-361.816406
7959.918999	3.267238	28.808594	-361.816406
7959.921000	3.267194	28.808594	-361.816406
7959.923000	3.266814	35.934952	0.113616
7960.965019	3.265619	110.644531	24.609375
7960.967021	3.267453	110.644531	24.609375
7960.969023	3.267356	110.644531	24.609375
7960.971023	3.267105	35.938152	0.068527
7962.005072	3.265545	25.585937	-372.558594
7962.007074	3.267181	25.585937	-372.558594
7962.009074	3.266951	25.585937	-372.558594
7962.011075	3.266761	35.934368	0.113776
7963.049102	3.263102	109.570312	23.925781
7963.051103	3.266781	109.570312	23.925781
7963.053103	3.267313	109.570312	23.925781
7963.057100	3.266791	109.570312	23.925781
7963.059103	3.266787	35.934654	0.068527
7964.089137	3.266984	26.757812	-370.214844
7964.091139	3.267141	26.757812	-370.214844
7964.093140	3.266855	26.757812	-370.214844
7964.095138	3.266749	35.934242	0.116198
7965.131692	3.266172	109.765625	25.000000
7965.133694	3.267413	109.765625	25.000000
7965.135694	3.267024	109.765625	25.000000
7965.137695	3.266919	35.936111	0.069389
7966.167733	3.265026	19.238281	-376.367187
7966.169734	3.267355	19.238281	-376.367187
7966.171734	3.267318	19.238281	-376.367187
7966.173736	3.267064	35.937698	0.124254
7967.223807	3.265377	111.621094	21.484375
7967.225809	3.267130	111.621094	21.484375
7967.227808	3.266987	111.621094	21.484375
7967.229808	3.266756	35.934315	0.062120
7968.250765	3.267056	17.285156	-384.082031
7968.252764	3.267325	17.285156	-384.082031
7968.254765	3.266935	17.285156	-384.082031
7968.256764	3.266831	35.935139	0.419351
7969.302793	3.263288	113.671875	20.507812
7969.304795	3.266586	113.671875	20.507812
7969.306795	3.266908	113.671875	20.507812
7969.308794	3.266600	113.671875	20.507812
7969.310795	3.266545	35.931992	0.069833
7970.327395	3.264058	23.242187	-375.000000
7970.329395	3.267227	23.242187	-375.000000
7970.331395	3.267429	23.242187	-375.000000
7970.333396	3.267182	23.242187	-375.000000
7970.335396	3.267091	35.938000	0.123478
7971.389459	3.265973	114.648437	18.554687
7971.391461	3.267007	114.648437	18.554687
7971.393461	3.266625	114.648437	18.554687
7971.395462	3.266489	35.931381	0.073195
7972.423468	3.266600	23.925781	-373.046875
7972.425471	3.266842	23.925781	-373.046875
7972.427469	3.266578	23.925781	-373.046875
7972.429472	3.266426	35.930683	0.359961
7973.463541	3.267500	112.304687	24.218750
7973.465543	3.267166	112.304687	24.218750
7973.467543	3.267116	35.938278	0.070706
7974.499593	3.265902	27.050781	-370.507812
7974.501596	3.267361	27.050781	-370.507812
7974.503594	3.267056	27.050781	-370.507812
7974.505596	3.266800	35.934803	0.124229
7975.555658	3.264552	112.695312	20.019531
7975.557660	3.266983	112.695312	20.019531
7975.559658	3.267073	112.695312	20.019531
7975.561658	3.266877	35.935650	0.068326
7976.585700	3.266190	18.945312	-377.343750
7976.587703	3.267184	18.945312	-377.343750
7976.589702	3.266839	18.945312	-377.343750
7976.591703	3.266813	35.934944	0.121088
7977.638247	3.266661	113.964844	18.359375
7977.640249	3.267259	113.964844	18.359375
7977.642250	3.266940	113.964844	18.359375
7977.644251	3.266819	35.935013	0.065539
7978.662293	3.266190	19.335937	-382.910156
7978.664294	3.267428	19.335937	-382.910156
7978.666297	3.267062	19.335937	-382.910156
7978.668296	3.266989	35.936874	0.117402
7979.724355	3.266884	116.406250	15.527344
7979.726356	3.267368	116.406250	15.527344
7979.728357	3.267025	116.406250	15.527344
7979.730356	3.267038	35.937416	0.138764
7980.756412	3.267075	21.875000	-376.269531
7980.758414	3.266703	21.875000	-376.269531
7980.760413	3.266658	35.933235	0.129332
7981.804473	3.266976	115.527344	21.777344
7981.806475	3.266646	115.527344	21.777344
7981.808474	3.266667	35.933338	0.070933
7982.837029	3.265954	24.902344	-373.925781
7982.839030	3.267188	24.902344	-373.925781
7982.841030	3.266942	24.902344	-373.925781
7982.843030	3.266762	35.934383	0.113955
7983.877084	3.265145	113.574219	22.851562
7983.879086	3.267013	113.574219	22.851562
7983.881088	3.266815	113.574219	22.851562
7983.883088	3.266613	35.932739	0.072749
7984.919121	3.264778	24.316406	-373.535156
7984.921122	3.267354	24.316406	-373.535156
7984.923122	3.267385	24.316406	-373.535156
7984.925124	3.267044	35.937481	0.126118
7985.975193	3.263822	113.964844	18.066406
7985.977195	3.266813	113.964844	18.066406
7985.979197	3.266977	113.964844	18.066406
7985.981195	3.266637	113.964844	18.066406
7985.983195	3.266605	35.932655	0.063818
7987.001736	3.265904	17.773437	-379.199219
7987.003737	3.267158	17.773437	-379.199219
7987.005735	3.266790	17.773437	-379.199219
7987.007738	3.266656	35.933216	0.117781
7988.055782	3.267523	115.332031	18.652344
7988.057783	3.267217	115.332031	18.652344
7988.059783	3.266973	35.936699	0.063481
7989.078729	3.266496	18.945312	-379.492187
7989.080732	3.267346	18.945312	-379.492187
7989.082732	3.266923	18.945312	-379.492187
7989.084732	3.266770	35.934475	0.120104
7990.140801	3.266908	117.578125	13.378906
7990.142802	3.267619	117.578125	13.378906
7990.144801	3.267208	117.578125	13.378906
7990.146805	3.267052	35.937576	0.070587
7991.164836	3.265939	19.628906	-382.519531
7991.166838	3.267127	19.628906	-382.519531
7991.168839	3.266744	19.628906	-382.519531
7991.170839	3.266627	35.932899	0.118304
7992.228875	2.938504	118.164062	13.867187
7992.230878	3.266939	118.164062	13.867187
7992.232877	3.266815	35.934963	0.065169
7993.247446	3.266440	20.507812	-382.519531
7993.249449	3.267272	20.507812	-382.519531
7993.251449	3.266855	20.507812	-382.519531
7993.253449	3.266707	35.933781	0.112688
7994.309486	3.265481	118.945312	12.988281
7994.311487	3.265634	118.945312	12.988281
7994.313488	3.267332	118.945312	12.988281
7994.315489	3.267027	35.937294	0.074435
7995.333539	3.266679	19.238281	-384.472656
7995.335542	3.267381	19.238281	-384.472656
7995.337540	3.267002	19.238281	-384.472656
7995.339541	3.266839	35.935226	0.114523
7996.393591	3.264913	119.726562	13.769531
7996.399591	3.267073	119.726562	13.769531
7996.403590	3.267051	119.726562	13.769531
7996.405592	3.267012	35.937134	0.070096
7997.416560	3.266848	18.945312	-385.449219
7997.418563	3.267251	18.945312	-385.449219
7997.420563	3.266915	18.945312	-385.449219
7997.422562	3.266826	35.935085	0.232019
7998.478599	3.263675	120.214844	10.546875
7998.480600	3.266994	120.214844	10.546875
7998.484599	3.266902	120.214844	10.546875
7998.486601	3.266906	120.214844	10.546875
7998.488600	3.266865	35.935509	0.065579
7999.498624	3.265920	21.289062	-380.957031
7999.500624	3.267035	21.289062	-380.957031
7999.502626	3.266746	21.289062	-380.957031
7999.504624	3.266649	35.933136	0.112335
8000.558688	3.264848	120.410156	11.230469
8000.560690	3.267276	120.410156	11.230469
8000.562690	3.267364	120.410156	11.230469
8000.564689	3.267081	35.937885	0.071728
8001.584721	3.267351	21.777344	-380.273437
8001.586721	3.266858	21.777344	-380.273437
8001.588721	3.266900	35.935902	0.123802
8002.641243	3.266356	120.507812	11.621094
8002.643245	3.266413	120.507812	11.621094
8002.645246	3.266738	120.507812	11.621094
8002.647247	3.266630	35.932930	0.068906
8003.661295	3.266062	19.140625	-382.226562
8003.663298	3.267151	19.140625	-382.226562
8003.665298	3.266743	19.140625	-382.226562
8003.667298	3.266736	35.934093	0.120485
8004.729333	3.266684	120.117187	13.281250
8004.731335	3.266595	35.932541	0.071400
8005.747403	3.264695	17.187500	-381.835937
8005.749406	3.266918	17.187500	-381.835937
8005.751405	3.266814	17.187500	-381.835937
8005.753406	3.266635	35.932983	0.124761
8006.811461	3.266368	119.824219	12.207031
8006.813463	3.267065	119.824219	12.207031
8006.815463	3.266641	119.824219	12.207031
8006.817463	3.266593	35.932526	0.067922
8007.837553	3.266747	17.578125	-381.152344
8007.839554	3.267420	17.578125	-381.152344
8007.841554	3.267062	17.578125	-381.152344
8007.843554	3.266950	35.936451	0.118031
8008.889646	3.266993	119.433594	14.355469
8008.891647	3.266776	119.433594	14.355469
8008.893647	3.266735	35.934082	0.070515
8009.919707	3.265668	26.464844	-371.972656
8009.921708	3.267007	26.464844	-371.972656
8009.923711	3.266804	26.464844	-371.972656
8009.925710	3.266653	35.933182	0.117237
8010.975770	3.266351	121.093750	14.062500
8010.977773	3.267241	121.093750	14.062500
8010.979771	3.267009	121.093750	14.062500
8010.981772	3.266854	35.935394	0.066721
8012.003835	3.266999	28.125000	-368.066406
8012.005837	3.267445	28.125000	-368.066406
8012.007837	3.267211	28.125000	-368.066406
8012.009838	3.267097	35.938065	0.117836
8013.058401	3.266799	123.144531	14.453125
8013.060401	3.267049	123.144531	14.453125
8013.062399	3.266698	123.144531	14.453125
8013.064402	3.266610	35.932713	0.072237
8014.083001	3.266016	21.679687	-378.808594
8014.085002	3.267136	21.679687	-378.808594
8014.087003	3.266822	21.679687	-378.808594
8014.089002	3.266571	35.932285	0.117114
8015.145066	3.266136	124.316406	8.593750
8015.147068	3.266930	124.316406	8.593750
8015.149067	3.266544	124.316406	8.593750
8015.151067	3.266541	35.931950	0.069286
8016.163111	3.265961	21.289062	-381.933594
8016.165112	3.267177	21.289062	-381.933594
8016.167113	3.266877	21.289062	-381.933594
8016.169112	3.266755	35.934307	0.116904
8017.225166	3.264067	123.535156	10.156250
8017.227178	3.266909	123.535156	10.156250
8017.229179	3.267095	123.535156	10.156250
8017.231179	3.266615	123.535156	10.156250
8017.233180	3.266642	35.933067	0.071084
8018.249243	3.265634	18.847656	-379.492187
8018.251246	3.267326	18.847656	-379.492187
8018.253246	3.267130	18.847656	-379.492187
8018.255245	3.266915	35.936069	0.119348
8019.313291	3.267514	122.753906	10.546875
8019.319290	3.267172	122.753906	10.546875
8019.321292	3.267070	35.937771	0.068337
8020.337326	3.266608	21.386719	-376.074219
8020.339328	3.266926	21.386719	-376.074219
8020.341331	3.266575	21.386719	-376.074219
8020.345334	3.266497	35.931469	0.120590
8021.391368	3.266892	122.558594	13.378906
8021.393370	3.266870	35.935566	0.172290
8022.421996	3.266534	25.976562	-373.632812
8022.423997	3.267032	25.976562	-373.632812
8022.427995	3.266615	25.976562	-373.632812
8022.429996	3.266612	35.932728	0.116358
8023.474041	3.266922	124.609375	13.183594
8023.476044	3.267612	124.609375	13.183594
8023.478044	3.267184	124.609375	13.183594
8023.480044	3.267115	35.938267	0.074621
8024.504095	3.266080	25.000000	-372.753906
8024.506098	3.267512	25.000000	-372.753906
8024.508097	3.267184	25.000000	-372.753906
8024.510098	3.266997	35.936966	0.113455
8025.562146	3.267255	126.269531	11.132812
8025.564148	3.267022	126.269531	11.132812
8025.566147	3.266898	35.935883	0.074454
8026.584711	3.266749	21.972656	-378.417969
8026.586711	3.267144	21.972656	-378.417969
8026.588712	3.266777	21.972656	-378.417969
8026.590713	3.266661	35.933266	0.235757
8027.648756	3.266003	127.734375	6.152344
8027.650756	3.267364	127.734375	6.152344
8027.656755	3.267027	127.734375	6.152344
8027.660757	3.267006	35.937061	0.069669
8028.664814	3.266542	21.972656	-381.542969
8028.666816	3.267529	21.972656	-381.542969
8028.668817	3.267519	21.972656	-381.542969
8028.670817	3.267058	35.937637	0.115196
8029.728880	3.265732	127.832031	6.347656
8029.730881	3.267238	127.832031	6.347656
8029.732883	3.267088	127.832031	6.347656
8029.734884	3.266811	35.934917	0.072552
8030.746901	3.265098	20.117187	-384.082031
8030.748902	3.267175	20.117187	-384.082031
8030.750902	3.267146	20.117187	-384.082031
8030.752903	3.266874	35.935616	0.118685
8031.812979	1.968688	127.929687	5.957031
8031.816978	3.266941	127.929687	5.957031
8031.818979	3.266849	127.929687	5.957031
8031.822979	3.266772	35.934494	0.070673
8032.831022	3.266280	19.335937	-381.933594
8032.833024	3.267197	19.335937	-381.933594
8032.835025	3.266915	19.335937	-381.933594
8032.837026	3.266766	35.934422	0.118407
8033.895066	3.266247	127.832031	8.886719
8033.899065	3.266778	127.832031	8.886719
8033.901066	3.266666	127.832031	8.886719
8033.903066	3.266558	35.932137	0.071160
8034.918009	3.266894	17.968750	-382.031250
8034.920008	3.267422	17.968750	-382.031250
8034.922010	3.266961	17.968750	-382.031250
8034.924009	3.266919	35.936104	0.227022
8035.982073	3.267235	128.027344	6.152344
8035.984073	3.267503	128.027344	6.152344
8035.986076	3.267089	128.027344	6.152344
8035.988075	3.267127	35.938393	0.281671
8037.000098	3.265340	20.605469	-376.757812
8037.002099	3.267198	20.605469	-376.757812
8037.004099	3.267053	20.605469	-376.757812
8037.006098	3.266817	35.934990	0.119616
8038.061104	3.266126	128.125000	7.617187
8038.063109	3.267044	128.125000	7.617187
8038.065109	3.266720	128.125000	7.617187
8038.067107	3.266588	35.932472	0.072164
8039.083135	3.266687	18.066406	-381.542969
8039.085137	3.266996	18.066406	-381.542969
8039.087137	3.266802	18.066406	-381.542969
8039.089137	3.266746	35.934208	0.235120
8040.143173	3.263675	129.199219	7.031250
8040.145175	3.266888	129.199219	7.031250
8040.147175	3.267097	129.199219	7.031250
8040.149175	3.266780	129.199219	7.031250
8040.153172	3.266689	35.933578	0.072302
8041.161255	3.267037	22.363281	-375.781250
8041.163258	3.267062	22.363281	-375.781250
8041.165257	3.266793	35.934723	0.118501
8042.237866	3.266772	130.566406	5.175781
8042.239874	3.266775	35.934525	0.069882
8043.249962	3.266865	20.019531	-382.714844
8043.251963	3.267531	20.019531	-382.714844
8043.253968	3.267209	20.019531	-382.714844
8043.255969	3.267125	35.938374	0.112336
8044.314043	3.267240	131.835937	5.859375
8044.316044	3.266912	131.835937	5.859375
8044.318045	3.266802	35.934822	0.086792
8045.330055	3.266637	22.363281	-379.492187
8045.332059	3.267056	22.363281	-379.492187
8045.334059	3.266690	22.363281	-379.492187
8045.336059	3.266614	35.932755	0.243466
8046.398125	3.266620	132.910156	4.101562
8046.400127	3.266929	132.910156	4.101562
8046.402127	3.266534	132.910156	4.101562
8046.408124	3.266451	35.930965	0.227134
8047.416177	3.267010	24.511719	-372.949219
8047.418179	3.266886	24.511719	-372.949219
8047.420178	3.266603	35.932629	0.116065
8048.480242	3.267306	133.300781	7.128906
8048.482245	3.266996	133.300781	7.128906
8048.484244	3.266804	35.934845	0.122476
8049.500872	3.264753	23.046875	-373.046875
8049.502873	3.266977	23.046875	-373.046875
8049.504872	3.266976	23.046875	-373.046875
8049.506873	3.266655	35.933208	0.115170
8050.557361	3.266989	132.617187	9.765625
8050.559358	3.267229	132.617187	9.765625
8050.561358	3.266845	132.617187	9.765625
8050.563359	3.266811	35.934925	0.421671
8051.585950	3.266543	28.222656	-365.429687
8051.587952	3.267317	28.222656	-365.429687
8051.589953	3.266846	28.222656	-365.429687
8051.591954	3.266731	35.934040	0.116717
8052.644010	3.265758	131.054687	7.519531
8052.646014	3.267154	131.054687	7.519531
8052.648018	3.266934	131.054687	7.519531
8052.650021	3.266780	35.934582	0.072946
8053.666070	3.263622	25.390625	-366.894531
8053.668071	3.266916	25.390625	-366.894531
8053.670071	3.267235	25.390625	-366.894531
8053.672072	3.266866	25.390625	-366.894531
8053.674072	3.266791	35.934696	0.121273
8054.730095	3.266524	131.054687	5.859375
8054.732096	3.267068	131.054687	5.859375
8054.736095	3.266704	131.054687	5.859375
8054.738097	3.266709	35.933800	0.069902
8055.752129	3.266546	16.796875	-374.609375
8055.754132	3.267104	16.796875	-374.609375
8055.756133	3.266724	16.796875	-374.609375
8055.758133	3.266658	35.933243	0.116390
8056.816246	3.266430	132.324219	3.808594
8056.818249	3.267318	132.324219	3.808594
8056.820249	3.266887	132.324219	3.808594
8056.822248	3.266789	35.934677	0.070019
8057.830295	3.263847	16.992187	-378.710937
8057.832298	3.266736	16.992187	-378.710937
8057.834299	3.267005	16.992187	-378.710937
8057.836297	3.266605	16.992187	-378.710937
8057.838299	3.266587	35.932453	0.116973
8058.898332	3.267442	134.472656	2.441406
8058.900336	3.267304	134.472656	2.441406
8058.902335	3.267252	35.939774	0.073732
8059.912381	3.263523	19.726562	-379.785156
8059.914383	3.267108	19.726562	-379.785156
8059.916383	3.267415	19.726562	-379.785156
8059.918383	3.267090	19.726562	-379.785156
8059.920384	3.267023	35.937248	0.120472
8060.984461	3.265834	136.035156	2.246094
8060.986465	3.267313	136.035156	2.246094
8060.988464	3.267045	136.035156	2.246094
8060.990464	3.266886	35.935753	0.075006
8062.001105	3.266805	21.093750	-375.585937
8062.003102	3.266887	21.093750	-375.585937
8062.005103	3.266634	21.093750	-375.585937
8062.007102	3.266652	35.933170	0.113357
8063.065140	3.264316	136.230469	2.050781
8063.067142	3.266900	136.230469	2.050781
8063.069142	3.266987	136.230469	2.050781
8063.073139	3.266650	35.933155	0.077387
8064.085255	3.266434	27.246094	-362.207031
8064.087255	3.267298	27.246094	-362.207031
8064.089256	3.266819	27.246094	-362.207031
8064.093254	3.266754	35.934296	0.113781
8065.145244	3.267610	136.328125	5.078125
8065.147246	3.267166	136.328125	5.078125
8065.149246	3.267060	35.937656	0.075541
8066.167267	3.264179	27.539062	-362.500000
8066.169298	3.266937	27.539062	-362.500000
8066.171301	3.267032	27.539062	-362.500000
8066.173300	3.266777	27.539062	-362.500000
8066.175300	3.266752	35.934269	0.116966
8067.227362	3.266307	135.449219	5.566406
8067.229363	3.267096	135.449219	5.566406
8067.231363	3.266801	135.449219	5.566406
8067.235361	3.266675	35.933418	0.073875
8068.253392	3.267240	24.023437	-366.113281
8068.255391	3.267241	24.023437	-366.113281
8068.257392	3.266787	35.934654	0.116871
8069.309893	3.266982	135.742187	4.589844
8069.311896	3.267540	135.742187	4.589844
8069.313897	3.267164	135.742187	4.589844
8069.315896	3.267111	35.938221	0.074972
8070.338007	3.266790	25.878906	-361.035156
8070.340006	3.266995	25.878906	-361.035156
8070.342006	3.266704	25.878906	-361.035156
8070.344006	3.266629	35.932915	0.464360
8071.396062	3.266294	135.742187	3.222656
8071.398064	3.267137	135.742187	3.222656
8071.400062	3.266754	135.742187	3.222656
8071.402063	3.266592	35.932507	0.073254
8072.414153	3.264312	22.851562	-362.792969
8072.416160	3.267123	22.851562	-362.792969
8072.418162	3.267272	22.851562	-362.792969
8072.420165	3.267017	22.851562	-362.792969
8072.422166	3.266908	35.935989	0.121588
8073.478266	3.265621	135.839844	2.343750
8073.482267	3.266852	135.839844	2.343750
8073.484267	3.266741	135.839844	2.343750
8073.486267	3.266731	35.934040	0.073727
8074.500316	3.263381	19.433594	-365.820312
8074.502316	3.266849	19.433594	-365.820312
8074.504316	3.267180	19.433594	-365.820312
8074.506317	3.266832	19.433594	-365.820312
8074.508316	3.266806	35.934864	0.119914
8075.564407	3.266482	136.230469	2.148437
8075.566408	3.267152	136.230469	2.148437
8075.568409	3.266795	136.230469	2.148437
8075.570409	3.266725	35.933979	0.072248
8076.582449	3.265718	21.289062	-362.890625
8076.584451	3.267340	21.289062	-362.890625
8076.586452	3.267171	21.289062	-362.890625
8076.588453	3.267044	35.937489	0.121356
8077.648505	3.266977	136.816406	1.757812
8077.652506	3.266567	136.816406	1.757812
8077.654506	3.266637	35.933002	0.074376
8078.666592	3.266637	22.656250	-360.742187
8078.668594	3.267376	22.656250	-360.742187
8078.670596	3.266945	22.656250	-360.742187
8078.672596	3.266852	35.935368	0.119490
8079.728636	3.266691	137.402344	3.320312
8079.730640	3.266709	137.402344	3.320312
8079.732639	3.266802	137.402344	3.320312
8079.734639	3.266721	35.933926	0.100511
8080.751231	3.264490	25.683594	-357.421875
8080.753234	3.266852	25.683594	-357.421875
8080.757231	3.266620	25.683594	-357.421875
8080.759233	3.266520	35.931717	0.117861
8081.810225	3.263917	138.281250	2.832031
8081.812227	3.267072	138.281250	2.832031
8081.814227	3.267454	138.281250	2.832031
8081.818225	3.266995	138.281250	2.832031
8081.820227	3.266985	35.936832	0.074465
8082.836301	3.266804	27.636719	-355.761719
8082.838303	3.267027	27.636719	-355.761719
8082.840303	3.266720	27.636719	-355.761719
8082.842302	3.266678	35.933453	0.117150
8083.894856	3.265712	139.648437	5.273437
8083.896858	3.267319	139.648437	5.273437
8083.898858	3.267112	139.648437	5.273437
8083.900857	3.267060	35.937656	0.071594
8084.918864	3.266745	28.027344	-356.152344
8084.920865	3.266920	28.027344	-356.152344
8084.922864	3.266519	35.931709	0.116124
8085.977473	3.264004	140.722656	2.246094
8085.979475	3.266994	140.722656	2.246094
8085.981476	3.266998	140.722656	2.246094
8085.983475	3.266911	140.722656	2.246094
8085.985475	3.266866	35.935528	0.075566
8087.005571	3.266911	27.148437	-356.054687
8087.007572	3.266778	27.148437	-356.054687
8087.011570	3.266798	35.934784	0.116308
8088.068585	3.266679	142.089844	0.878906
8088.070586	3.266613	35.932747	0.157783
8089.083170	3.267210	21.289062	-365.039062
8089.085173	3.266865	21.289062	-365.039062
8089.087174	3.266714	35.933853	0.112196
8090.147211	3.266691	142.871094	-2.246094
8090.149213	3.267356	142.871094	-2.246094
8090.151212	3.266987	142.871094	-2.246094
8090.153213	3.266898	35.935883	0.077519
8091.161322	3.264723	22.558594	-366.210937
8091.163324	3.266916	22.558594	-366.210937
8091.165324	3.266894	22.558594	-366.210937
8091.167323	3.266660	35.933258	0.116403
8092.237390	3.266450	143.164062	-4.589844
8092.239394	3.267372	143.164062	-4.589844
8092.241393	3.267002	143.164062	-4.589844
8092.243393	3.266901	35.935909	0.074311
8093.243447	3.264614	20.898437	-366.015625
8093.245449	3.267138	20.898437	-366.015625
8093.247450	3.267268	20.898437	-366.015625
8093.253448	3.266890	35.935783	0.116768
8094.319510	3.267126	141.992187	-3.710937
8094.321511	3.267375	141.992187	-3.710937
8094.323510	3.267014	141.992187	-3.710937
8094.325510	3.266892	35.935810	0.072451
8095.329582	3.264994	20.019531	-360.253906
8095.331583	3.267066	20.019531	-360.253906
8095.333583	3.267002	20.019531	-360.253906
8095.335584	3.266798	35.934776	0.117107
8096.397590	3.265853	141.894531	-2.343750
8096.399591	3.267083	141.894531	-2.343750
8096.401592	3.266806	141.894531	-2.343750
8096.403592	3.266704	35.933739	0.074077
8097.415638	3.265886	21.386719	-353.808594
8097.417640	3.266957	21.386719	-353.808594
8097.419639	3.266646	21.386719	-353.808594
8097.421640	3.266519	35.931709	0.117049
8098.482636	3.266048	142.089844	-2.343750
8098.484639	3.267186	142.089844	-2.343750
8098.486639	3.266847	142.089844	-2.343750
8098.488638	3.266743	35.934174	0.070465
8099.500688	3.266943	26.269531	-349.707031
8099.502691	3.266939	26.269531	-349.707031
8099.504689	3.266649	35.933136	0.114972
8100.561670	3.265970	143.164062	0.683594
8100.563671	3.267334	143.164062	0.683594
8100.565670	3.267087	143.164062	0.683594
8100.567669	3.266840	35.935246	0.075600
8101.585752	3.267257	23.339844	-352.929687
8101.589753	3.266771	23.339844	-352.929687
8101.591755	3.266717	35.933887	0.112579
8102.645796	3.266804	144.531250	0.878906
8102.647797	3.266687	144.531250	0.878906
8102.649797	3.266510	35.931614	0.078304
8103.665859	3.266107	26.464844	-349.609375
8103.667859	3.267574	26.464844	-349.609375
8103.669860	3.267261	26.464844	-349.609375
8103.671860	3.267079	35.937866	0.113846
8104.731948	3.267174	145.800781	0.683594
8104.733951	3.266821	145.800781	0.683594
8104.735949	3.266689	35.933578	0.076566
8105.750537	3.267448	27.246094	-348.925781
8105.752539	3.267230	27.246094	-348.925781
8105.756538	3.267018	35.937195	0.113104
8106.815497	3.267395	146.972656	-3.320312
8106.817500	3.267188	146.972656	-3.320312
8106.819499	3.267019	35.937202	0.078738
8107.833576	3.267588	22.363281	-355.859375
8107.837578	3.267051	22.363281	-355.859375
8107.839578	3.267052	35.937576	0.112513
8108.899633	3.266590	147.949219	-2.832031
8108.901632	3.267242	147.949219	-2.832031
8108.903636	3.266905	147.949219	-2.832031
8108.905636	3.266815	35.934971	0.076992
8109.913644	3.266213	24.511719	-354.687500
8109.915648	3.267167	24.511719	-354.687500
8109.917648	3.266860	24.511719	-354.687500
8109.919647	3.266728	35.934013	0.112803
8110.982210	3.266687	149.707031	-4.492187
8110.984212	3.267229	149.707031	-4.492187
8110.986212	3.266743	149.707031	-4.492187
8110.988213	3.266678	35.933453	0.157279
8111.992293	3.265982	23.730469	-360.156250
8111.994295	3.266985	23.730469	-360.156250
8111.996294	3.266742	23.730469	-360.156250
8111.998294	3.266625	35.932880	0.116401
8113.064354	3.266024	149.902344	-4.003906
8113.066356	3.267180	149.902344	-4.003906
8113.068358	3.266818	149.902344	-4.003906
8113.070357	3.266744	35.934181	0.079462
8114.079318	3.266541	25.585937	-354.687500
8114.083319	3.267148	25.585937	-354.687500
8114.085320	3.266989	25.585937	-354.687500
8114.087320	3.267057	35.937630	0.112849
8115.152273	3.265232	150.097656	-6.152344
8115.154275	3.267063	150.097656	-6.152344
8115.156273	3.267003	150.097656	-6.152344
8115.158274	3.266727	35.933998	0.076714
8116.162288	3.266267	21.289062	-355.273437
8116.164296	3.267092	21.289062	-355.273437
8116.166298	3.266641	21.289062	-355.273437
8116.168299	3.266628	35.932907	0.115600
8117.234810	3.266815	150.292969	-5.761719
8117.236812	3.267128	150.292969	-5.761719
8117.238812	3.266785	150.292969	-5.761719
8117.240811	3.266687	35.933552	0.208271
8118.244900	3.266110	23.339844	-353.417969
8118.246900	3.267072	23.339844	-353.417969
8118.248901	3.266758	23.339844	-353.417969
8118.250900	3.266567	35.932232	0.116339
8119.316958	3.265288	150.878906	-4.003906
8119.318959	3.266957	150.878906	-4.003906
8119.320960	3.266799	150.878906	-4.003906
8119.322959	3.266682	35.933498	0.080763
8120.331543	3.266996	24.316406	-348.828125
8120.333541	3.267184	24.316406	-348.828125
8120.335544	3.266999	24.316406	-348.828125
8120.337544	3.266880	35.935680	0.330539
8121.393644	3.266464	150.878906	-2.929687
8121.395645	3.267507	150.878906	-2.929687
8121.397646	3.267176	150.878906	-2.929687
8121.399646	3.267084	35.937923	0.081702
8122.415690	3.266740	24.609375	-346.582031
8122.419689	3.266758	24.609375	-346.582031
8122.421698	3.266751	24.609375	-346.582031
8122.423705	3.266739	35.934128	0.198847
8123.477723	3.266600	150.488281	-1.855469
8123.479723	3.266875	150.488281	-1.855469
8123.481724	3.266567	150.488281	-1.855469
8123.483724	3.266534	35.931877	0.271510
8124.501841	3.267254	28.125000	-340.917969
8124.503844	3.266968	28.125000	-340.917969
8124.505843	3.266817	35.934990	0.112043
8125.560397	3.264435	150.585937	-2.148437
8125.562398	3.264575	150.585937	-2.148437
8125.564399	3.266989	150.585937	-2.148437
8125.566399	3.266716	35.933880	0.076303
8126.582482	3.266786	22.558594	-343.652344
8126.584484	3.267107	22.558594	-343.652344
8126.586484	3.266793	22.558594	-343.652344
8126.588484	3.266712	35.933838	0.115887
8127.646556	3.265920	150.000000	-4.980469
8127.648560	3.267118	150.000000	-4.980469
8127.650558	3.266857	150.000000	-4.980469
8127.652558	3.266683	35.933510	0.075972
8128.662580	3.264490	20.214844	-343.164062
8128.664583	3.267010	20.214844	-343.164062
8128.666585	3.267130	20.214844	-343.164062
8128.668585	3.266848	35.935326	0.117232
8129.732617	3.267334	150.390625	-4.980469
8129.734621	3.266977	150.390625	-4.980469
8129.736619	3.266808	35.934891	0.074633
8130.745185	3.266400	16.308594	-346.679687
8130.747186	3.267064	16.308594	-346.679687
8130.749186	3.266717	16.308594	-346.679687
8130.751188	3.266653	35.933182	0.116736
8131.817242	3.267027	151.171875	-6.152344
8131.819243	3.266735	151.171875	-6.152344
8131.821245	3.266600	35.932606	0.074428
8132.825797	3.264569	20.214844	-347.753906
8132.827798	3.266807	20.214844	-347.753906
8132.829796	3.266835	20.214844	-347.753906
8132.831799	3.266571	35.932285	0.114271
8133.900769	3.266506	152.734375	-6.738281
8133.902768	3.267015	152.734375	-6.738281
8133.904771	3.266699	152.734375	-6.738281
8133.906769	3.266677	35.933445	0.076262
8134.907773	3.263735	21.582031	-350.585937
8134.909775	3.266783	21.582031	-350.585937
8134.911775	3.266944	21.582031	-350.585937
8134.913775	3.266713	21.582031	-350.585937
8134.915775	3.266620	35.932823	0.117006
8135.983877	3.265299	153.906250	-9.570312
8135.985878	3.267380	153.906250	-9.570312
8135.987879	3.267345	153.906250	-9.570312
8135.989880	3.267097	35.938065	0.077503
8136.995910	3.266975	23.730469	-347.460937
8136.999910	3.266546	23.730469	-347.460937
8137.001913	3.266521	35.931725	0.111302
8138.068869	3.263788	155.078125	-9.375000
8138.070871	3.266757	155.078125	-9.375000
8138.072870	3.267025	155.078125	-9.375000
8138.074870	3.266677	155.078125	-9.375000
8138.076871	3.266567	35.932240	0.087690
8139.074919	3.265427	24.316406	-343.261719
8139.076920	3.267360	24.316406	-343.261719
8139.078919	3.267169	24.316406	-343.261719
8139.080919	3.266964	35.936607	0.118998
8140.150985	3.267060	155.761719	-7.128906
8140.152988	3.266747	155.761719	-7.128906
8140.154987	3.266638	35.933022	0.081894
8141.163524	3.266149	23.339844	-340.136719
8141.165526	3.267134	23.339844	-340.136719
8141.167526	3.266837	23.339844	-340.136719
8141.169526	3.266681	35.933491	0.111447
8142.227584	3.266660	155.664062	-5.273437
8142.231583	3.266634	155.664062	-5.273437
8142.233587	3.266575	155.664062	-5.273437
8142.239585	3.266591	35.932495	0.084658
8143.248193	3.266711	23.925781	-336.230469
8143.250194	3.267417	23.925781	-336.230469
8143.252194	3.267008	23.925781	-336.230469
8143.254194	3.266995	35.936947	0.111014
8144.310226	3.265261	155.664062	-5.175781
8144.312227	3.266936	155.664062	-5.175781
8144.314228	3.266853	155.664062	-5.175781
8144.316229	3.266612	35.932728	0.082531
8145.328291	3.266615	26.660156	-332.617187
8145.330294	3.266690	26.660156	-332.617187
8145.332293	3.267158	26.660156	-332.617187
8145.334294	3.267046	35.937508	0.115927
8146.394348	3.267308	156.250000	-3.808594
8146.396350	3.267064	156.250000	-3.808594
8146.398349	3.266876	35.935635	0.081668
8147.414938	3.267421	24.511719	-330.468750
8147.416943	3.267023	24.511719	-330.468750
8147.418940	3.267008	35.937088	0.115086
8148.474972	3.264617	156.152344	-4.394531
8148.476971	3.267045	156.152344	-4.394531
8148.478972	3.267148	156.152344	-4.394531
8148.480974	3.266815	35.934971	0.081026
8149.494991	3.265010	26.464844	-328.027344
8149.496993	3.265145	26.464844	-328.027344
8149.500991	3.267070	26.464844	-328.027344
8149.502994	3.266957	35.936531	0.117183
8150.559045	3.266382	156.152344	-5.078125
8150.561048	3.267016	156.152344	-5.078125
8150.563048	3.266706	156.152344	-5.078125
8150.565048	3.266517	35.931683	0.079637
8151.579121	3.264060	23.925781	-328.320312
8151.581141	3.266741	23.925781	-328.320312
8151.583143	3.266905	23.925781	-328.320312
8151.585144	3.266644	23.925781	-328.320312
8151.587142	3.266628	35.932907	0.115846
8152.643214	3.264480	156.542969	-5.566406
8152.645216	3.266844	156.542969	-5.566406
8152.647217	3.266877	156.542969	-5.566406
8152.649216	3.266711	35.933826	0.077519
8153.663274	3.266819	23.828125	-326.757812
8153.665275	3.267114	23.828125	-326.757812
8153.667274	3.266783	23.828125	-326.757812
8153.669273	3.266680	35.933483	0.113860
8154.725375	3.265323	156.835937	-5.566406
8154.727375	3.267070	156.835937	-5.566406
8154.729376	3.266872	156.835937	-5.566406
8154.731378	3.266690	35.933594	0.081890
8155.747447	3.267244	28.710937	-322.949219
8155.749444	3.266987	28.710937	-322.949219
8155.751450	3.266975	35.936726	0.111406
8156.809520	3.265878	157.617187	-6.738281
8156.811522	3.267127	157.617187	-6.738281
8156.813524	3.266812	157.617187	-6.738281
8156.815521	3.266679	35.933472	0.080289
8157.829537	3.267305	26.660156	-323.828125
8157.833538	3.266897	26.660156	-323.828125
8157.835540	3.266883	35.935715	0.115641
8158.890136	3.263012	159.277344	-5.761719
8158.892139	3.266640	159.277344	-5.761719
8158.894140	3.267137	159.277344	-5.761719
8158.896140	3.266766	159.277344	-5.761719
8158.898139	3.266645	35.933090	0.085284
8159.912699	3.266433	24.707031	-324.902344
8159.914698	3.267301	24.707031	-324.902344
8159.916700	3.266858	24.707031	-324.902344
8159.918699	3.266785	35.934635	0.111796
8160.978735	3.266952	159.863281	-7.714844
8160.980737	3.267197	159.863281	-7.714844
8160.982739	3.266907	159.863281	-7.714844
8160.984738	3.266793	35.934723	0.084430
8161.996758	3.267457	25.976562	-324.414062
8161.998760	3.267146	25.976562	-324.414062
8162.000759	3.267010	35.937107	0.113201
8163.063751	3.267021	160.742187	-8.984375
8163.065757	3.267145	160.742187	-8.984375
8163.067755	3.266867	160.742187	-8.984375
8163.069756	3.266868	35.935547	0.082755
8164.078278	3.267051	20.800781	-329.882812
8164.080279	3.267084	20.800781	-329.882812
8164.082281	3.266805	35.934853	0.111898
8165.146364	3.266675	160.742187	-12.402344
8165.148367	3.266968	160.742187	-12.402344
8165.150365	3.266679	160.742187	-12.402344
8165.152367	3.266673	35.933403	0.085158
8166.158418	3.266975	20.605469	-331.835937
8166.160419	3.267380	20.605469	-331.835937
8166.162420	3.267040	20.605469	-331.835937
8166.164421	3.267015	35.937168	0.112815
8167.234505	3.267118	161.328125	-12.500000
8167.236508	3.267189	161.328125	-12.500000
8167.238507	3.266915	161.328125	-12.500000
8167.240507	3.266881	35.935696	0.078709
8168.237061	3.266347	20.214844	-331.933594
8168.239063	3.267381	20.214844	-331.933594
8168.241064	3.267016	20.214844	-331.933594
8168.243062	3.266889	35.935776	0.113511
8169.315134	3.265850	160.937500	-12.988281
8169.317134	3.267027	160.937500	-12.988281
8169.319134	3.266782	160.937500	-12.988281
8169.321135	3.266680	35.933483	0.081196
8170.321147	3.264811	18.261719	-329.199219
8170.323148	3.266932	18.261719	-329.199219
8170.325147	3.266921	18.261719	-329.199219
8170.327148	3.266620	35.932823	0.116240
8171.401236	3.266971	160.839844	-13.085937
8171.403238	3.266586	160.839844	-13.085937
8171.405241	3.266566	35.932224	0.151456
8172.405282	3.266104	20.117187	-321.582031
8172.407283	3.267075	20.117187	-321.582031
8172.409284	3.266799	20.117187	-321.582031
8172.411284	3.266716	35.933872	0.114951
8173.477818	3.265330	160.449219	-11.132812
8173.479817	3.267061	160.449219	-11.132812
8173.481819	3.267043	160.449219	-11.132812
8173.483819	3.266746	35.934208	0.081929
8174.490417	3.266620	18.750000	-316.210937
8174.492421	3.266902	18.750000	-316.210937
8174.494419	3.266563	18.750000	-316.210937
8174.496418	3.266491	35.931396	0.358574
8175.562434	3.263105	160.058594	-11.816406
8175.564435	3.266643	160.058594	-11.816406
8175.566435	3.266887	160.058594	-11.816406
8175.568434	3.266712	160.058594	-11.816406
8175.572432	3.266564	35.932205	0.080250
8176.576487	3.266657	18.750000	-312.011719
8176.578487	3.267201	18.750000	-312.011719
8176.580488	3.266859	18.750000	-312.011719
8176.582487	3.266804	35.934837	0.116879
8177.642554	3.266671	161.425781	-10.253906
8177.644553	3.267152	161.425781	-10.253906
8177.646555	3.266787	161.425781	-10.253906
8177.648553	3.266734	35.934074	0.143797
8178.658625	3.266042	22.949219	-307.128906
8178.660628	3.267312	22.949219	-307.128906
8178.662626	3.266989	22.949219	-307.128906
8178.666624	3.266765	35.934410	0.115017
8179.726710	3.266125	162.011719	-9.375000
8179.728713	3.267252	162.011719	-9.375000
8179.732710	3.266943	162.011719	-9.375000
8179.734711	3.266820	35.935024	0.077245
8180.742751	2.064322	23.144531	-307.031250
8180.744752	3.267003	23.144531	-307.031250
8180.746754	3.266655	23.144531	-307.031250
8180.748753	3.266528	35.931808	0.113467
8181.814782	3.267491	164.355469	-8.593750
8181.816783	3.267128	164.355469	-8.593750
8181.818785	3.266991	35.936901	0.138909
8182.821318	3.265425	25.195312	-312.890625
8182.823320	3.267229	25.195312	-312.890625
8182.825320	3.267124	25.195312	-312.890625
8182.827320	3.266818	35.934998	0.118070
8183.893346	3.267016	165.917969	-7.421875
8183.895347	3.267377	165.917969	-7.421875
8183.897348	3.266946	165.917969	-7.421875
8183.899348	3.266933	35.936264	0.092094
8184.912353	3.266819	26.660156	-306.152344
8184.914355	3.266853	26.660156	-306.152344
8184.916355	3.266642	35.933067	0.110954
8185.976409	3.266339	165.332031	-9.570312
8185.978413	3.267271	165.332031	-9.570312
8185.980412	3.266925	165.332031	-9.570312
8185.982413	3.266792	35.934711	0.083057
8186.990426	3.264872	22.753906	-308.105469
8186.992428	3.266833	22.753906	-308.105469
8186.994429	3.266831	22.753906	-308.105469
8186.998428	3.266412	35.930531	0.112449
8188.058458	3.264109	165.820312	-10.546875
8188.060461	3.267085	165.820312	-10.546875
8188.062460	3.267402	165.820312	-10.546875
8188.064460	3.267089	165.820312	-10.546875
8188.066462	3.266981	35.936794	0.084965
8189.072519	3.266112	22.363281	-307.714844
8189.074520	3.266953	22.363281	-307.714844
8189.076519	3.266658	22.363281	-307.714844
8189.078521	3.266602	35.932621	0.115195
8190.144573	3.266998	165.917969	-11.523437
8190.146575	3.267047	165.917969	-11.523437
8190.148573	3.266825	35.935078	0.545580
8191.156572	3.265124	22.265625	-306.738281
8191.158574	3.266981	22.265625	-306.738281
8191.160575	3.266919	22.265625	-306.738281
8191.162574	3.266702	35.933720	0.111869
8192.226604	3.263487	166.992187	-11.425781
8192.228607	3.266776	166.992187	-11.425781
8192.230606	3.267020	166.992187	-11.425781
8192.232606	3.266679	166.992187	-11.425781
8192.234606	3.266703	35.933731	0.086113
8193.240606	3.266649	21.191406	-304.394531
8193.242607	3.267081	21.191406	-304.394531
8193.244609	3.266819	21.191406	-304.394531
8193.246607	3.266744	35.934181	0.163770
8194.306666	3.267146	166.699219	-10.644531
8194.308669	3.267205	166.699219	-10.644531
8194.310668	3.266848	35.935326	0.088650
8195.323220	3.265244	23.730469	-300.976562
8195.325224	3.267293	23.730469	-300.976562
8195.327223	3.267256	23.730469	-300.976562
8195.331226	3.266905	35.935951	0.112566
8196.391318	3.267023	166.796875	-11.132812
8196.393320	3.266978	166.796875	-11.132812
8196.395321	3.266713	35.933846	0.086484
8197.403399	3.266139	24.707031	-298.339844
8197.405402	3.267456	24.707031	-298.339844
8197.407401	3.267218	24.707031	-298.339844
8197.409401	3.267000	35.937000	0.112211
8198.477460	3.267051	166.796875	-11.328125
8198.479462	3.266855	166.796875	-11.328125
8198.481461	3.266653	35.933182	0.084331
8199.485497	3.265430	25.195312	-294.140625
8199.487498	3.267011	25.195312	-294.140625
8199.489498	3.266800	25.195312	-294.140625
8199.491498	3.266566	35.932224	0.114168
8200.561558	3.267189	167.187500	-12.011719
8200.563561	3.267053	167.187500	-12.011719
8200.565562	3.266885	35.935734	0.083412
8201.571618	3.265101	25.195312	-292.285156
8201.573621	3.267216	25.195312	-292.285156
8201.575621	3.267177	25.195312	-292.285156
8201.577621	3.266874	35.935616	0.112413
8202.645693	3.267121	166.894531	-13.183594
8202.647695	3.266783	166.894531	-13.183594
8202.649695	3.266632	35.932949	0.081972
8203.651775	3.264643	23.046875	-290.234375
8203.653777	3.266963	23.046875	-290.234375
8203.655778	3.266886	23.046875	-290.234375
8203.657777	3.266634	35.932976	0.116152
8204.728351	3.266210	166.503906	-14.746094
8204.730353	3.267097	166.503906	-14.746094
8204.732353	3.266799	166.503906	-14.746094
8204.734354	3.266684	35.933525	0.080757
8205.734435	3.266403	18.652344	-290.429687
8205.736437	3.267422	18.652344	-290.429687
8205.738438	3.266999	18.652344	-290.429687
8205.740437	3.266925	35.936176	0.116516
8206.812531	3.266423	166.406250	-15.234375
8206.814532	3.266962	166.406250	-15.234375
8206.818529	3.266540	166.406250	-15.234375
8206.820531	3.266558	35.932144	0.081770
8207.818586	3.266563	15.234375	-291.406250
8207.820586	3.267317	15.234375	-291.406250
8207.822588	3.266922	15.234375	-291.406250
8207.824589	3.266867	35.935539	0.113513
8208.894637	3.266700	167.089844	-15.917969
8208.896637	3.267633	167.089844	-15.917969
8208.898640	3.267210	167.089844	-15.917969
8208.900638	3.267146	35.938606	0.082362
8209.900700	3.266344	17.871094	-293.261719
8209.902702	3.267214	17.871094	-293.261719
8209.904701	3.266791	17.871094	-293.261719
8209.906702	3.266623	35.932854	0.114220
8210.981239	3.267216	167.773437	-17.187500
8210.983242	3.266918	167.773437	-17.187500
8210.987239	3.266788	35.934669	0.082471
8211.985307	3.267025	18.066406	-296.582031
8211.987309	3.266813	18.066406	-296.582031
8211.989308	3.266725	35.933979	0.115160
8213.063922	3.267188	169.824219	-17.382812
8213.065924	3.266897	169.824219	-17.382812
8213.069922	3.266748	35.934223	0.083076
8214.067988	3.267244	16.210937	-298.339844
8214.069989	3.267005	16.210937	-298.339844
8214.071989	3.266837	35.935207	0.112840
8215.148500	3.267066	170.605469	-18.164062
8215.150504	3.267180	170.605469	-18.164062
8215.152503	3.266882	170.605469	-18.164062
8215.154503	3.266843	35.935272	0.470940
8216.147468	3.266629	19.628906	-297.949219
8216.149469	3.267069	19.628906	-297.949219
8216.151469	3.266703	19.628906	-297.949219
8216.153469	3.266684	35.933525	0.151500
8217.229574	3.265868	170.605469	-19.531250
8217.231575	3.267171	170.605469	-19.531250
8217.233574	3.266908	170.605469	-19.531250
8217.235574	3.266745	35.934189	0.084191
8218.229637	3.263779	20.019531	-296.191406
8218.231639	3.266717	20.019531	-296.191406
8218.233640	3.266973	20.019531	-296.191406
8218.235638	3.266651	20.019531	-296.191406
8218.237637	3.266573	35.932304	0.112655
8219.311729	3.266260	171.875000	-18.945312
8219.313730	3.267064	171.875000	-18.945312
8219.315729	3.266726	171.875000	-18.945312
8219.317730	3.266713	35.933846	0.085975
8220.319787	3.267174	20.898437	-292.968750
8220.321789	3.266753	20.898437	-292.968750
8220.323789	3.266613	35.932739	0.108512
8221.392399	3.264278	171.777344	-18.652344
8221.394403	3.266936	171.777344	-18.652344
8221.396400	3.267103	171.777344	-18.652344
8221.398403	3.266701	35.933712	0.086271
8222.400913	3.266165	18.945312	-289.160156
8222.402915	3.267324	18.945312	-289.160156
8222.404915	3.267062	18.945312	-289.160156
8222.406916	3.266861	35.935474	0.108206
8223.472982	3.263615	173.242187	-16.796875
8223.474983	3.266831	173.242187	-16.796875
8223.476984	3.267060	173.242187	-16.796875
8223.478984	3.266666	173.242187	-16.796875
8223.480987	3.266662	35.933277	0.087983
8224.483597	3.265051	21.972656	-284.765625
8224.485599	3.267213	21.972656	-284.765625
8224.487600	3.267118	21.972656	-284.765625
8224.489600	3.266911	35.936024	0.111899
8225.557663	3.264692	172.363281	-16.699219
8225.559665	3.266987	172.363281	-16.699219
8225.561665	3.266923	172.363281	-16.699219
8225.563666	3.266744	35.934181	0.086814
8226.566197	3.266228	20.996094	-281.835937
8226.568202	3.267151	20.996094	-281.835937
8226.570198	3.266877	20.996094	-281.835937
8226.572200	3.266783	35.934616	0.112430
8227.638237	3.266496	173.828125	-15.136719
8227.640238	3.267040	173.828125	-15.136719
8227.642238	3.266668	173.828125	-15.136719
8227.644239	3.266581	35.932392	0.087195
8228.652846	3.267342	19.726562	-279.199219
8228.654855	3.267058	19.726562	-279.199219
8228.656854	3.267002	35.937027	0.110484
8229.724948	3.266987	172.753906	-16.406250
8229.726948	3.267027	172.753906	-16.406250
8229.728949	3.266897	172.753906	-16.406250
8229.730948	3.266931	35.936237	0.083845
8230.732998	3.266794	23.046875	-276.953125
8230.734999	3.267052	23.046875	-276.953125
8230.736998	3.266794	23.046875	-276.953125
8230.738999	3.266690	35.933586	0.113717
8231.805540	3.266420	174.609375	-14.941406
8231.807544	3.267436	174.609375	-14.941406
8231.809543	3.267038	174.609375	-14.941406
8231.811543	3.266907	35.935978	0.084409
8232.817625	3.266756	25.097656	-273.925781
8232.819627	3.267220	25.097656	-273.925781
8232.821631	3.266857	25.097656	-273.925781
8232.823634	3.266767	35.934441	0.107346
8233.891683	3.267098	174.023437	-16.113281
8233.893683	3.266768	174.023437	-16.113281
8233.895683	3.266620	35.932816	0.084712
8234.901704	3.267259	25.000000	-272.167969
8234.903705	3.266900	25.000000	-272.167969
8234.905704	3.266708	35.933792	0.108299
8235.972674	3.266428	175.488281	-15.527344
8235.974677	3.267301	175.488281	-15.527344
8235.976676	3.266958	175.488281	-15.527344
8235.978676	3.266854	35.935394	0.084401
8236.983231	3.266458	20.898437	-272.265625
8236.985234	3.267040	20.898437	-272.265625
8236.987234	3.266678	20.898437	-272.265625
8236.989235	3.266625	35.932880	0.109092
8238.055289	3.266172	175.878906	-16.308594
8238.057291	3.267398	175.878906	-16.308594
8238.061289	3.266912	175.878906	-16.308594
8238.063290	3.266873	35.935600	0.089489
8239.063345	3.267065	21.777344	-271.679687
8239.065345	3.267293	21.777344	-271.679687
8239.067346	3.267005	21.777344	-271.679687
8239.069343	3.266957	35.936523	0.369968
8240.139366	3.267131	175.488281	-18.066406
8240.141366	3.267570	175.488281	-18.066406
8240.143367	3.267222	175.488281	-18.066406
8240.145368	3.267078	35.937859	0.180827
8241.145403	3.266603	21.484375	-271.875000
8241.147404	3.267624	21.484375	-271.875000
8241.149404	3.267268	21.484375	-271.875000
8241.151404	3.267098	35.938080	0.111202
8242.223447	3.266929	176.660156	-18.652344
8242.225449	3.267135	176.660156	-18.652344
8242.227451	3.266766	176.660156	-18.652344
8242.229448	3.266662	35.933277	0.379381
8243.230032	3.265075	18.554687	-272.460937
8243.232034	3.267019	18.554687	-272.460937
8243.234033	3.266921	18.554687	-272.460937
8243.236034	3.266694	35.933632	0.107097
8244.308089	3.266781	176.464844	-20.019531
8244.310090	3.267220	176.464844	-20.019531
8244.312091	3.266807	176.464844	-20.019531
8244.314091	3.266745	35.934200	0.088508
8245.312108	3.266620	21.191406	-273.242187
8245.314109	3.266973	21.191406	-273.242187
8245.316110	3.266605	21.191406	-273.242187
8245.318111	3.266586	35.932446	0.220319
8246.390194	3.265255	176.660156	-21.191406
8246.392195	3.267080	176.660156	-21.191406
8246.394195	3.266856	176.660156	-21.191406
8246.396196	3.266684	35.933525	0.088448
8247.392237	3.264200	19.531250	-273.242187
8247.394248	3.266908	19.531250	-273.242187
8247.396248	3.267061	19.531250	-273.242187
8247.398249	3.266780	19.531250	-273.242187
8247.400249	3.266729	35.934021	0.111352
8248.474343	3.265835	177.050781	-22.070312
8248.476346	3.267136	177.050781	-22.070312
8248.478345	3.266870	177.050781	-22.070312
8248.482343	3.266687	35.933552	0.087832
8249.476403	3.265070	18.164062	-272.558594
8249.478405	3.267158	18.164062	-272.558594
8249.480405	3.267133	18.164062	-272.558594
8249.482406	3.266842	35.935265	0.110058
8250.554429	3.265580	177.343750	-21.875000
8250.556431	3.267173	177.343750	-21.875000
8250.558431	3.266996	177.343750	-21.875000
8250.562429	3.266741	35.934155	0.087178
8251.558501	3.265910	18.164062	-269.824219
8251.560501	3.267529	18.164062	-269.824219
8251.562501	3.267536	18.164062	-269.824219
8251.564502	3.267168	35.938850	0.109781
8252.638536	3.265073	177.734375	-21.386719
8252.640537	3.265282	177.734375	-21.386719
8252.642536	3.266992	177.734375	-21.386719
8252.644537	3.266768	35.934448	0.086072
8253.640564	3.266629	17.871094	-265.332031
8253.644563	3.266962	17.871094	-265.332031
8253.646568	3.266828	17.871094	-265.332031
8253.648567	3.266865	35.935509	0.110224
