time (s)	coil I (A)	last det (V)	int current (uC)
5047.870807	3.267474	294.628906	-66.503906
5047.872810	3.267025	294.628906	-66.503906
5047.874809	3.267031	35.937347	0.529951
5048.875350	3.265034	67.480469	123.925781
5048.877354	3.266933	67.480469	123.925781
5048.879352	3.266953	67.480469	123.925781
5048.881353	3.266613	35.932739	0.189001
5049.959430	3.266132	295.019531	-62.597656
5049.961433	3.267250	295.019531	-62.597656
5049.963433	3.266823	295.019531	-62.597656
5049.965433	3.266734	35.934074	0.234897
5050.965494	3.265837	65.722656	124.707031
5050.967496	3.267592	65.722656	124.707031
5050.969493	3.267447	65.722656	124.707031
5050.971495	3.267150	35.938648	0.166136
5052.047576	3.266798	295.019531	-61.718750
5052.049577	3.267065	295.019531	-61.718750
5052.051578	3.266849	295.019531	-61.718750
5052.053577	3.266687	35.933563	0.439356
5053.063585	3.264410	60.937500	111.621094
5053.065588	3.267394	60.937500	111.621094
5053.069586	3.267289	60.937500	111.621094
5053.071588	3.267266	60.937500	111.621094
5053.073589	3.267208	35.939285	0.197178
5054.115654	3.266247	297.265625	-65.136719
5054.117657	3.267452	297.265625	-65.136719
5054.119655	3.267206	297.265625	-65.136719
5054.121656	3.267127	35.938393	0.244314
5055.135665	3.266728	67.382812	122.265625
5055.137671	3.266775	67.382812	122.265625
5055.139676	3.266950	67.382812	122.265625
5055.141676	3.266903	35.935936	0.174307
5056.201728	3.267267	296.972656	-61.914062
5056.203730	3.266829	296.972656	-61.914062
5056.205731	3.266717	35.933887	0.267451
5057.221747	3.264475	64.160156	117.773437
5057.223747	3.266875	64.160156	117.773437
5057.225748	3.266988	64.160156	117.773437
5057.227747	3.266641	35.933048	0.192797
5058.281819	3.265236	299.218750	-62.011719
5058.283821	3.267180	299.218750	-62.011719
5058.285821	3.267132	299.218750	-62.011719
5058.287821	3.266849	35.935333	0.271249
5059.312403	3.265121	62.597656	113.183594
5059.314403	3.267126	62.597656	113.183594
5059.316403	3.267110	62.597656	113.183594
5059.318404	3.266856	35.935413	0.196788
5060.362480	3.267190	300.976562	-60.253906
5060.364480	3.267247	300.976562	-60.253906
5060.366483	3.267198	300.976562	-60.253906
5060.368483	3.267101	35.938107	0.439472
5061.382523	3.266399	66.015625	118.457031
5061.384524	3.267568	66.015625	118.457031
5061.386525	3.267267	66.015625	118.457031
5061.388525	3.267150	35.938648	0.189139
5062.450552	3.267438	302.734375	-60.058594
5062.452554	3.267260	302.734375	-60.058594
5062.454553	3.267118	35.938301	0.254097
5063.477501	3.267097	69.042969	117.382812
5063.479503	3.267048	69.042969	117.382812
5063.481504	3.266865	35.935520	0.185457
5064.532460	3.266911	304.785156	-60.058594
5064.534461	3.267067	304.785156	-60.058594
5064.536460	3.266789	35.934677	0.283895
5065.556488	3.264341	69.042969	114.648437
5065.558500	3.267027	69.042969	114.648437
5065.560506	3.267093	69.042969	114.648437
5065.562509	3.266881	69.042969	114.648437
5065.564511	3.266819	35.935013	0.210505
5066.610560	3.267186	305.468750	-59.082031
5066.612561	3.267005	305.468750	-59.082031
5066.614562	3.266844	35.935280	0.274116
5067.631078	3.266107	71.386719	116.699219
5067.633080	3.267198	71.386719	116.699219
5067.635080	3.266846	71.386719	116.699219
5067.637081	3.266679	35.933472	0.206678
5068.693133	3.264981	304.003906	-55.664062
5068.695133	3.267377	304.003906	-55.664062
5068.697134	3.267338	304.003906	-55.664062
5068.699133	3.267138	35.938515	0.258301
5069.729134	3.266064	70.507812	116.210937
5069.731135	3.267180	70.507812	116.210937
5069.733135	3.266900	70.507812	116.210937
5069.735135	3.266897	35.935867	0.185822
5070.785190	3.267212	304.785156	-55.566406
5070.787191	3.267131	304.785156	-55.566406
5070.789192	3.266925	35.936176	0.741412
5071.811247	3.263232	66.894531	103.027344
5071.813251	3.266951	66.894531	103.027344
5071.817250	3.267087	66.894531	103.027344
5071.819250	3.266916	66.894531	103.027344
5071.821251	3.266919	35.936104	0.212616
5072.859285	3.263053	302.636719	-52.832031
5072.861287	3.266677	302.636719	-52.832031
5072.863287	3.267075	302.636719	-52.832031
5072.865285	3.266819	302.636719	-52.832031
5072.867287	3.266730	35.934032	0.294831
5073.885324	3.266927	69.238281	107.519531
5073.887326	3.266811	69.238281	107.519531
5073.889327	3.266622	35.932842	0.222279
5074.937374	3.266605	304.785156	-56.933594
5074.939374	3.267582	304.785156	-56.933594
5074.941378	3.267180	304.785156	-56.933594
5074.943378	3.267111	35.938221	0.273770
5075.955396	3.265007	72.753906	114.453125
5075.957398	3.267304	72.753906	114.453125
5075.959397	3.267310	72.753906	114.453125
5075.961397	3.266997	35.936966	0.214507
5077.033484	3.267343	301.855469	-52.929687
5077.035485	3.267471	301.855469	-52.929687
5077.037487	3.267210	35.939304	0.266943
5078.059503	3.266395	68.652344	105.371094
5078.061505	3.267436	68.652344	105.371094
5078.063505	3.267143	68.652344	105.371094
5078.065505	3.267055	35.937603	0.202949
5079.108087	3.265351	301.562500	-54.003906
5079.110090	3.267111	301.562500	-54.003906
5079.112088	3.266989	301.562500	-54.003906
5079.114089	3.266732	35.934055	0.303713
5080.140145	3.266309	71.484375	106.347656
5080.142147	3.267587	71.484375	106.347656
5080.144146	3.267262	71.484375	106.347656
5080.146147	3.267104	35.938145	0.232282
5081.186177	3.263955	301.757812	-56.933594
5081.188178	3.266983	301.757812	-56.933594
5081.190178	3.267278	301.757812	-56.933594
5081.192176	3.266963	301.757812	-56.933594
5081.194179	3.266811	35.934917	0.302175
5082.214225	3.266082	67.871094	104.101562
5082.216226	3.267345	67.871094	104.101562
5082.218226	3.267025	67.871094	104.101562
5082.220227	3.266891	35.935802	0.224154
5083.278266	3.266753	296.289062	-52.343750
5083.280268	3.267272	296.289062	-52.343750
5083.282269	3.267039	296.289062	-52.343750
5083.284268	3.266954	35.936493	0.281283
5084.306263	3.266464	67.675781	107.226562
5084.308265	3.267144	67.675781	107.226562
5084.312268	3.266683	67.675781	107.226562
5084.314271	3.266665	35.933311	0.197457
5085.360330	3.266706	297.851562	-57.226562
5085.362331	3.267136	297.851562	-57.226562
5085.364332	3.266716	297.851562	-57.226562
5085.366332	3.266683	35.933517	0.297266
5086.381294	3.266775	66.113281	103.906250
5086.383295	3.266846	66.113281	103.906250
5086.385295	3.266786	66.113281	103.906250
5086.387294	3.266728	35.934006	0.405219
5087.441317	3.264260	294.921875	-55.273437
5087.443320	3.267247	294.921875	-55.273437
5087.445318	3.267367	294.921875	-55.273437
5087.447320	3.267106	294.921875	-55.273437
5087.449319	3.267015	35.937160	0.314409
5088.471368	3.267018	65.136719	101.367187
5088.473369	3.267438	65.136719	101.367187
5088.475371	3.266999	65.136719	101.367187
5088.477370	3.266901	35.935909	0.472237
5089.528296	3.267420	291.308594	-53.027344
5089.530298	3.267281	291.308594	-53.027344
5089.532298	3.267004	35.937042	0.291012
5090.550300	3.264663	62.304687	95.312500
5090.554302	3.267512	62.304687	95.312500
5090.556304	3.267136	62.304687	95.312500
5090.558305	3.267082	35.937904	0.214717
5091.606319	3.264972	292.285156	-55.761719
5091.608321	3.267022	292.285156	-55.761719
5091.610321	3.266975	292.285156	-55.761719
5091.612321	3.266783	35.934608	0.302640
5092.632385	3.266828	64.453125	96.289062
5092.634388	3.266567	64.453125	96.289062
5092.636387	3.266558	35.932137	0.510978
5093.692454	3.265501	289.746094	-53.808594
5093.694458	3.267097	289.746094	-53.808594
5093.698459	3.266718	289.746094	-53.808594
5093.700461	3.266750	35.934254	0.304063
5094.714449	3.265642	62.402344	91.210937
5094.716450	3.267235	62.402344	91.210937
5094.718449	3.267025	62.402344	91.210937
5094.720451	3.266853	35.935379	0.222093
5095.780496	3.266271	288.671875	-52.734375
5095.782497	3.267147	288.671875	-52.734375
5095.784497	3.266805	288.671875	-52.734375
5095.786499	3.266617	35.932781	0.308022
5096.804544	3.266380	63.085937	86.035156
5096.806547	3.267201	63.085937	86.035156
5096.808546	3.266818	63.085937	86.035156
5096.810546	3.266813	35.934944	0.224304
5097.860552	3.266187	288.574219	-53.613281
5097.862553	3.267269	288.574219	-53.613281
5097.864553	3.266859	288.574219	-53.613281
5097.866554	3.266793	35.934723	0.312177
5098.876612	3.265124	70.410156	93.847656
5098.880614	3.267456	70.410156	93.847656
5098.882616	3.267084	70.410156	93.847656
5098.884614	3.267035	35.937389	0.241607
5099.941555	3.266466	288.574219	-54.101562
5099.943555	3.267339	288.574219	-54.101562
5099.945555	3.267007	288.574219	-54.101562
5099.947555	3.266876	35.935635	0.306837
5100.957587	3.264229	65.136719	86.816406
5100.959589	3.267176	65.136719	86.816406
5100.961587	3.267406	65.136719	86.816406
5100.963587	3.267059	65.136719	86.816406
5100.965588	3.266939	35.936325	0.230338
5102.027623	3.265160	289.941406	-55.078125
5102.029624	3.267063	289.941406	-55.078125
5102.031624	3.267021	289.941406	-55.078125
5102.033622	3.266754	35.934296	0.306841
5103.053675	3.267002	62.792969	75.878906
5103.055675	3.267679	62.792969	75.878906
5103.057676	3.267263	62.792969	75.878906
5103.059677	3.267310	35.940411	0.226624
5104.109709	3.265656	288.281250	-53.320312
5104.111709	3.267164	288.281250	-53.320312
5104.113708	3.266915	288.281250	-53.320312
5104.115711	3.266786	35.934643	0.320193
5105.129740	3.266349	67.968750	80.761719
5105.133740	3.266766	67.968750	80.761719
5105.135742	3.266653	67.968750	80.761719
5105.137741	3.266642	35.933067	0.247862
5106.191758	3.267382	291.601562	-57.324219
5106.193759	3.267537	291.601562	-57.324219
5106.197757	3.267177	291.601562	-57.324219
5106.199759	3.267135	35.938488	0.323999
5107.204776	2.314948	69.921875	82.812500
5107.206778	3.267305	69.921875	82.812500
5107.208777	3.266946	69.921875	82.812500
5107.210778	3.266913	35.936043	0.252037
5108.272792	3.266306	290.625000	-56.835937
5108.274793	3.267196	290.625000	-56.835937
5108.276796	3.266848	290.625000	-56.835937
5108.278795	3.266756	35.934315	0.304404
5109.293751	3.264782	65.234375	73.632812
5109.295753	3.266989	65.234375	73.632812
5109.297754	3.266981	65.234375	73.632812
5109.299752	3.266788	35.934669	0.228471
5110.359795	3.266780	289.843750	-55.078125
5110.361797	3.267067	289.843750	-55.078125
5110.363796	3.266764	289.843750	-55.078125
5110.365795	3.266685	35.933537	0.322934
5111.380392	3.266921	65.136719	68.359375
5111.382394	3.267437	65.136719	68.359375
5111.384394	3.267100	65.136719	68.359375
5111.386394	3.267075	35.937824	0.246939
5112.440457	3.266951	290.820312	-55.468750
5112.442459	3.267418	290.820312	-55.468750
5112.444458	3.266998	290.820312	-55.468750
5112.446458	3.266942	35.936363	0.335650
5113.458979	3.266417	68.359375	72.851562
5113.460982	3.267181	68.359375	72.851562
5113.462982	3.266720	68.359375	72.851562
5113.464982	3.266700	35.933697	0.260967
5114.521045	3.265429	289.160156	-54.101562
5114.523049	3.267235	289.160156	-54.101562
5114.525047	3.267051	289.160156	-54.101562
5114.527048	3.266800	35.934803	0.316938
5115.541062	2.637857	67.578125	72.070312
5115.543065	3.267007	67.578125	72.070312
5115.545065	3.266823	67.578125	72.070312
5115.547064	3.266575	35.932320	0.244140
5116.607088	3.267416	288.867187	-54.003906
5116.609088	3.267446	288.867187	-54.003906
5116.611088	3.267139	35.938534	0.739725
5117.629683	3.267550	68.164062	70.410156
5117.631686	3.267265	68.164062	70.410156
5117.633686	3.267174	35.938915	0.458694
5118.689695	3.264308	285.742187	-50.976562
5118.693694	3.267495	285.742187	-50.976562
5118.697692	3.267040	285.742187	-50.976562
5118.699693	3.267115	35.938267	0.339348
5119.711734	3.266587	67.480469	66.015625
5119.713735	3.267151	67.480469	66.015625
5119.715737	3.266796	67.480469	66.015625
5119.719738	3.266689	35.933578	0.273526
5120.771778	3.266945	287.597656	-53.027344
5120.773781	3.267280	287.597656	-53.027344
5120.775780	3.266932	287.597656	-53.027344
5120.779777	3.266849	35.935333	0.466345
5121.789799	3.266194	65.527344	64.062500
5121.791800	3.267422	65.527344	64.062500
5121.793801	3.267069	65.527344	64.062500
5121.795801	3.266943	35.936371	0.257920
5122.853865	3.265357	286.816406	-52.343750
5122.855867	3.267119	286.816406	-52.343750
5122.857866	3.266921	286.816406	-52.343750
5122.859867	3.266700	35.933697	0.322128
5123.875918	3.266505	65.136719	60.937500
5123.877919	3.267477	65.136719	60.937500
5123.881917	3.266969	65.136719	60.937500
5123.883920	3.267019	35.937210	0.247696
5124.939981	3.266588	283.789062	-49.609375
5124.941982	3.267425	283.789062	-49.609375
5124.947979	3.266943	283.789062	-49.609375
5124.949980	3.266959	35.936550	0.337688
5125.956022	3.265637	68.164062	65.234375
5125.958024	3.267486	68.164062	65.234375
5125.960024	3.267296	68.164062	65.234375
5125.962023	3.267133	35.938461	0.265211
5127.020030	3.266331	287.109375	-52.441406
5127.022032	3.267407	287.109375	-52.441406
5127.024033	3.267051	287.109375	-52.441406
5127.026031	3.266961	35.936565	0.344915
5128.040602	3.266874	70.214844	67.968750
5128.042610	3.267225	70.214844	67.968750
5128.044613	3.266893	70.214844	67.968750
5128.046614	3.266840	35.935246	0.395039
5129.103646	3.266514	287.402344	-53.710937
5129.105649	3.267316	287.402344	-53.710937
5129.107650	3.266910	287.402344	-53.710937
5129.109647	3.266822	35.935040	0.328359
5130.125685	3.267222	64.550781	60.351562
5130.127688	3.266936	64.550781	60.351562
5130.129689	3.266876	35.935635	0.255209
5131.189737	3.267005	282.128906	-49.218750
5131.191737	3.267630	282.128906	-49.218750
5131.193738	3.267237	282.128906	-49.218750
5131.195737	3.267117	35.938286	0.345009
5132.213793	3.267316	63.476562	55.371094
5132.215795	3.266998	63.476562	55.371094
5132.217796	3.266867	35.935539	0.262290
5133.269869	3.267372	283.691406	-50.585937
5133.271872	3.267185	283.691406	-50.585937
5133.273871	3.266968	35.936653	0.350967
5134.292421	3.266109	63.378906	55.273437
5134.294423	3.267191	63.378906	55.273437
5134.296424	3.266868	63.378906	55.273437
5134.298422	3.266657	35.933228	0.271431
5135.350487	3.264800	280.371094	-48.242187
5135.352488	3.266976	280.371094	-48.242187
5135.354490	3.266995	280.371094	-48.242187
5135.356488	3.266733	35.934067	0.348505
5136.371013	3.267027	69.726562	68.359375
5136.373012	3.266884	69.726562	68.359375
5136.375013	3.266674	35.933411	0.269627
5137.435985	3.266276	277.734375	-46.484375
5137.437989	3.266316	277.734375	-46.484375
5137.439996	3.266638	277.734375	-46.484375
5137.441999	3.266536	35.931896	0.345917
5138.458514	3.266044	64.355469	58.789062
5138.460518	3.267152	64.355469	58.789062
5138.462516	3.266884	64.355469	58.789062
5138.464518	3.266739	35.934128	0.267557
5139.516556	3.264497	279.785156	-47.070312
5139.518557	3.266786	279.785156	-47.070312
5139.520558	3.266902	279.785156	-47.070312
5139.522558	3.266600	35.932594	0.354385
5140.542615	3.266725	63.085937	55.566406
5140.544617	3.267143	63.085937	55.566406
5140.546618	3.266783	63.085937	55.566406
5140.548617	3.266711	35.933826	0.383821
5141.600679	3.266798	278.613281	-46.191406
5141.602681	3.267084	278.613281	-46.191406
5141.604684	3.266723	278.613281	-46.191406
5141.606686	3.266630	35.932930	0.631071
5142.622728	3.267068	62.500000	55.175781
5142.624729	3.266704	62.500000	55.175781
5142.626729	3.266681	35.933491	0.277894
5143.680754	3.263738	280.664062	-47.656250
5143.682755	3.267170	280.664062	-47.656250
5143.684756	3.267516	280.664062	-47.656250
5143.686757	3.267242	280.664062	-47.656250
5143.688756	3.267188	35.939064	0.360913
5144.708795	3.263099	61.621094	52.832031
5144.710798	3.266722	61.621094	52.832031
5144.712797	3.267081	61.621094	52.832031
5144.714799	3.266788	61.621094	52.832031
5144.716797	3.266739	35.934128	0.275113
5145.764854	3.266292	279.003906	-45.312500
5145.766855	3.267363	279.003906	-45.312500
5145.768856	3.266926	279.003906	-45.312500
5145.770855	3.266888	35.935768	0.361825
5146.792891	3.266579	63.769531	53.710937
5146.794891	3.267189	63.769531	53.710937
5146.796893	3.266805	63.769531	53.710937
5146.798892	3.266758	35.934341	0.275735
5147.847430	3.267655	282.519531	-46.679687
5147.849433	3.267297	282.519531	-46.679687
5147.853430	3.267105	35.938152	0.352669
5148.875981	3.266890	67.382812	59.375000
5148.877983	3.266675	67.382812	59.375000
5148.879983	3.266747	35.934216	0.277334
5149.930922	3.267219	279.882812	-44.628906
5149.932924	3.267027	279.882812	-44.628906
5149.934925	3.266846	35.935307	0.361758
5150.956966	3.265938	67.089844	56.152344
5150.958968	3.267101	67.089844	56.152344
5150.960969	3.266764	67.089844	56.152344
5150.962969	3.266658	35.933243	0.283002
5152.011526	3.266349	283.398437	-44.726562
5152.013527	3.267010	283.398437	-44.726562
5152.015530	3.266653	283.398437	-44.726562
5152.017529	3.266596	35.932552	0.366663
5153.043539	3.267176	64.453125	46.972656
5153.045541	3.266875	64.453125	46.972656
5153.047540	3.266675	35.933426	0.286356
5154.093569	3.266186	281.054687	-41.992187
5154.095570	3.267210	281.054687	-41.992187
5154.097571	3.266809	281.054687	-41.992187
5154.099570	3.266760	35.934357	0.361922
5155.124053	3.266364	65.039062	45.800781
5155.126054	3.267105	65.039062	45.800781
5155.128060	3.266765	65.039062	45.800781
5155.130058	3.266610	35.932713	0.281676
5156.178125	3.267331	287.207031	-45.312500
5156.180129	3.267010	287.207031	-45.312500
5156.182128	3.266895	35.935848	0.362045
5157.210198	3.266528	63.574219	39.648437
5157.212202	3.267504	63.574219	39.648437
5157.214201	3.267155	63.574219	39.648437
5157.216202	3.267073	35.937809	0.283516
5158.262301	3.267297	285.351562	-43.359375
5158.264301	3.266969	285.351562	-43.359375
5158.266301	3.266777	35.934544	0.371485
5159.290885	3.266145	67.382812	45.605469
5159.292885	3.267109	67.382812	45.605469
5159.294884	3.266785	67.382812	45.605469
5159.296887	3.266690	35.933586	0.295163
5160.340922	3.263864	282.519531	-40.722656
5160.342925	3.266864	282.519531	-40.722656
5160.344923	3.266928	282.519531	-40.722656
5160.346924	3.266697	282.519531	-40.722656
5160.348924	3.266749	35.934235	0.373864
5161.374955	3.267161	69.628906	48.339844
5161.376956	3.266779	69.628906	48.339844
5161.378957	3.266602	35.932621	0.287957
5162.427557	3.267640	281.250000	-39.746094
5162.429557	3.267341	281.250000	-39.746094
5162.431560	3.267088	35.937965	0.363529
5163.457564	3.265345	68.945312	44.921875
5163.459564	3.267031	68.945312	44.921875
5163.461565	3.266842	68.945312	44.921875
5163.463566	3.266646	35.933109	0.289010
5164.510098	3.267208	287.011719	-42.773437
5164.512101	3.267344	287.011719	-42.773437
5164.514100	3.267133	287.011719	-42.773437
5164.516100	3.267004	35.937042	0.374058
5165.542139	3.266295	65.429687	35.742187
5165.544142	3.267106	65.429687	35.742187
5165.548139	3.266596	65.429687	35.742187
5165.550140	3.266588	35.932472	0.295939
5166.592222	3.266690	281.738281	-40.234375
5166.598222	3.266635	281.738281	-40.234375
5166.600224	3.266629	281.738281	-40.234375
5166.602225	3.266624	35.932869	0.524853
5167.622266	3.265642	65.136719	33.789062
5167.624268	3.267087	65.136719	33.789062
5167.626270	3.266864	65.136719	33.789062
5167.628268	3.266725	35.933979	0.295647
5168.674342	3.266745	285.449219	-42.382812
5168.676344	3.267210	285.449219	-42.382812
5168.678343	3.266825	285.449219	-42.382812
5168.680344	3.266757	35.934334	0.370507
5169.704857	3.266422	68.945312	41.894531
5169.706860	3.267099	68.945312	41.894531
5169.710857	3.266673	68.945312	41.894531
5169.712860	3.266632	35.932949	0.295532
5170.757396	3.265184	277.734375	-38.964844
5170.759396	3.267260	277.734375	-38.964844
5170.761398	3.267224	277.734375	-38.964844
5170.763398	3.266921	35.936131	0.374485
5171.789417	3.264460	63.378906	28.320312
5171.791419	3.266875	63.378906	28.320312
5171.793419	3.267028	63.378906	28.320312
5171.795421	3.266713	35.933846	0.299096
5172.839428	3.264396	278.515625	-40.039062
5172.841429	3.267068	278.515625	-40.039062
5172.843430	3.267295	278.515625	-40.039062
5172.845430	3.266908	35.935989	0.383199
5173.871487	3.265030	69.140625	41.308594
5173.873491	3.266972	69.140625	41.308594
5173.875489	3.266898	69.140625	41.308594
5173.877489	3.266697	35.933670	0.303445
5174.921501	3.267256	281.250000	-42.968750
5174.923503	3.267526	281.250000	-42.968750
5174.925502	3.267093	281.250000	-42.968750
5174.927503	3.267017	35.937187	0.570069
5175.955526	3.267460	65.917969	35.644531
5175.957529	3.267211	65.917969	35.644531
5175.959528	3.267099	35.938091	0.297624
5177.006138	3.266553	275.390625	-40.332031
5177.008142	3.267652	275.390625	-40.332031
5177.010141	3.267273	275.390625	-40.332031
5177.012141	3.267223	35.939453	0.376601
5178.038209	3.266948	66.699219	35.937500
5178.040211	3.267106	66.699219	35.937500
5178.044208	3.266811	66.699219	35.937500
5178.048209	3.266665	35.933311	0.301198
5179.092262	3.267384	278.222656	-43.066406
5179.094266	3.267046	278.222656	-43.066406
5179.096268	3.266973	35.936699	0.381674
5180.120304	3.266453	65.136719	32.812500
5180.122304	3.267255	65.136719	32.812500
5180.124303	3.266877	65.136719	32.812500
5180.126306	3.266710	35.933811	0.305888
5181.176308	3.267121	270.214844	-39.453125
5181.178308	3.266728	270.214844	-39.453125
5181.180311	3.266562	35.932178	0.386003
5182.202380	3.266565	62.792969	27.343750
5182.204381	3.267072	62.792969	27.343750
5182.206380	3.266676	62.792969	27.343750
5182.208381	3.266586	35.932446	0.307246
5183.256913	3.267221	272.949219	-41.796875
5183.258915	3.267431	272.949219	-41.796875
5183.260915	3.267109	272.949219	-41.796875
5183.262917	3.266964	35.936607	0.594240
5184.283458	3.265952	63.085937	27.148437
5184.285461	3.267211	63.085937	27.148437
5184.287460	3.266923	63.085937	27.148437
5184.289459	3.266885	35.935734	0.308063
5185.340013	3.266695	268.945312	-40.136719
5185.342015	3.267092	268.945312	-40.136719
5185.344015	3.266672	268.945312	-40.136719
5185.346015	3.266670	35.933369	0.473361
5186.366103	3.264884	61.718750	21.777344
5186.370103	3.267340	61.718750	21.777344
5186.372105	3.267057	61.718750	21.777344
5186.374106	3.266977	35.936741	0.310655
5187.424182	3.267138	273.144531	-42.773437
5187.426183	3.267000	273.144531	-42.773437
5187.428183	3.266812	35.934937	0.387590
5188.453118	3.267261	64.355469	24.511719
5188.455120	3.266889	64.355469	24.511719
5188.457126	3.266818	35.934998	0.305558
5189.506061	3.266387	270.800781	-41.113281
5189.508062	3.267351	270.800781	-41.113281
5189.510062	3.267044	270.800781	-41.113281
5189.512064	3.266881	35.935696	0.387978
5190.532652	3.266831	63.183594	18.164062
5190.534653	3.267361	63.183594	18.164062
5190.536655	3.266920	63.183594	18.164062
5190.538655	3.266826	35.935085	0.352369
5191.591154	3.267308	269.628906	-41.015625
5191.593157	3.267050	269.628906	-41.015625
5191.595156	3.266999	35.936993	0.388999
5192.615747	3.266907	58.593750	4.980469
5192.617748	3.267064	58.593750	4.980469
5192.619748	3.266813	58.593750	4.980469
5192.621748	3.266770	35.934467	0.315251
5193.673804	3.267081	272.460937	-43.066406
5193.675806	3.267072	272.460937	-43.066406
5193.677806	3.266936	35.936298	0.387943
5194.698790	3.266090	60.253906	7.226562
5194.702789	3.266730	60.253906	7.226562
5194.706791	3.266592	60.253906	7.226562
5194.708790	3.266635	35.932983	0.309059
5195.754811	3.265252	270.214844	-41.796875
5195.756810	3.267221	270.214844	-41.796875
5195.758812	3.267192	270.214844	-41.796875
5195.762810	3.266978	35.936760	0.395644
5196.783345	3.267022	61.328125	5.078125
5196.785348	3.266690	61.328125	5.078125
5196.787348	3.266660	35.933258	0.532011
5197.839385	3.266570	268.554687	-41.113281
5197.841384	3.267123	268.554687	-41.113281
5197.843384	3.266666	268.554687	-41.113281
5197.847382	3.266648	35.933125	0.420976
5198.863456	3.266544	58.593750	-3.906250
5198.865460	3.266601	58.593750	-3.906250
5198.867465	3.267123	58.593750	-3.906250
5198.869468	3.266981	35.936794	0.320033
5199.921599	3.266949	269.042969	-41.015625
5199.925600	3.267515	269.042969	-41.015625
5199.927601	3.267055	269.042969	-41.015625
5199.929602	3.267092	35.938011	0.392575
5200.947654	3.266977	60.058594	-2.734375
5200.949654	3.267239	60.058594	-2.734375
5200.951654	3.266816	60.058594	-2.734375
5200.953653	3.266842	35.935265	0.317280
5202.007687	3.267094	268.359375	-40.722656
5202.009688	3.266845	35.935291	0.396431
5203.032235	3.267233	63.964844	3.906250
5203.034237	3.266886	63.964844	3.906250
5203.036237	3.266780	35.934582	0.316858
5204.088807	3.267076	271.093750	-42.187500
5204.090806	3.267178	271.093750	-42.187500
5204.092805	3.266919	35.936111	0.395852
5205.112849	3.266580	62.597656	-2.343750
5205.114850	3.267005	62.597656	-2.343750
5205.116850	3.266701	62.597656	-2.343750
5205.118852	3.266607	35.932674	0.352393
5206.172865	3.267225	263.671875	-38.183594
5206.174867	3.266758	263.671875	-38.183594
5206.176867	3.266711	35.933826	0.396155
5207.194929	3.265320	63.085937	-2.148437
5207.196930	3.267467	63.085937	-2.148437
5207.198930	3.267367	63.085937	-2.148437
5207.200931	3.267392	35.941315	0.320271
5208.252965	3.264332	263.476562	-37.890625
5208.254971	3.266902	263.476562	-37.890625
5208.256976	3.266997	263.476562	-37.890625
5208.258977	3.266717	35.933887	0.397590
5209.279044	3.267021	61.425781	-7.714844
5209.281044	3.267501	61.425781	-7.714844
5209.283044	3.267070	61.425781	-7.714844
5209.285046	3.267033	35.937363	0.380566
5210.339066	3.267005	262.792969	-38.183594
5210.341067	3.266785	262.792969	-38.183594
5210.343068	3.266640	35.933041	0.397789
5211.363063	3.266264	60.351562	-12.500000
5211.365065	3.267089	60.351562	-12.500000
5211.367065	3.266704	60.351562	-12.500000
5211.369065	3.266560	35.932159	0.323802
5212.419118	3.265616	263.574219	-38.183594
5212.421118	3.267242	263.574219	-38.183594
5212.423119	3.267064	263.574219	-38.183594
5212.425117	3.266882	35.935707	0.399272
5213.445130	3.266936	65.429687	-0.683594
5213.447131	3.267091	65.429687	-0.683594
5213.449132	3.266666	35.933331	0.327809
5214.501700	3.266421	264.843750	-38.671875
5214.503702	3.267038	264.843750	-38.671875
5214.505700	3.266707	264.843750	-38.671875
5214.507700	3.266614	35.932755	0.398797
5215.531769	3.267288	64.843750	-1.269531
5215.535768	3.267058	64.843750	-1.269531
5215.537771	3.267081	35.937885	0.323878
5216.586322	3.266623	259.472656	-36.328125
5216.588323	3.267118	259.472656	-36.328125
5216.590322	3.267089	259.472656	-36.328125
5216.592323	3.266677	35.933445	0.399665
5217.610348	3.264587	58.203125	-19.238281
5217.612350	3.267118	58.203125	-19.238281
5217.614353	3.267182	58.203125	-19.238281
5217.616349	3.266849	35.935341	0.331239
5218.668379	3.266606	264.062500	-38.183594
5218.670381	3.267312	264.062500	-38.183594
5218.672381	3.266889	264.062500	-38.183594
5218.674380	3.266817	35.934990	0.399977
5219.692886	3.266558	65.820312	-0.585937
5219.694891	3.266620	65.820312	-0.585937
5219.696893	3.266855	65.820312	-0.585937
5219.698894	3.266794	35.934738	0.333557
5220.750900	3.266130	258.007812	-35.937500
5220.752901	3.267017	258.007812	-35.937500
5220.754903	3.266687	258.007812	-35.937500
5220.756901	3.266573	35.932304	0.400048
5221.776959	3.266396	58.984375	-16.699219
5221.778962	3.267450	58.984375	-16.699219
5221.780962	3.267096	58.984375	-16.699219
5221.782961	3.266959	35.936550	0.331146
5222.833008	3.265178	264.550781	-38.476562
5222.835009	3.267125	264.550781	-38.476562
5222.837009	3.267109	264.550781	-38.476562
5222.839009	3.266774	35.934509	0.403229
5223.860987	3.264815	57.031250	-22.656250
5223.862988	3.266938	57.031250	-22.656250
5223.864989	3.266916	57.031250	-22.656250
5223.866990	3.266637	35.933002	0.331469
5224.916997	3.266588	264.648437	-38.085937
5224.918998	3.267082	264.648437	-38.085937
5224.920998	3.266704	264.648437	-38.085937
5224.922998	3.266607	35.932674	0.426080
5225.945049	3.266552	55.078125	-27.539062
5225.949050	3.266838	55.078125	-27.539062
5225.951050	3.266774	55.078125	-27.539062
5225.953052	3.266711	35.933826	0.330999
5227.001086	3.267002	262.402344	-36.914062
5227.003087	3.266766	262.402344	-36.914062
5227.005088	3.266632	35.932949	0.402186
5228.027998	3.266944	54.687500	-28.125000
5228.030001	3.266982	54.687500	-28.125000
5228.032001	3.266625	35.932880	0.332658
5229.084084	3.266968	260.839844	-36.035156
5229.086086	3.266627	260.839844	-36.035156
5229.088086	3.266625	35.932880	0.684795
5230.110691	3.265330	61.621094	-12.988281
5230.112693	3.267066	61.621094	-12.988281
5230.114693	3.266928	61.621094	-12.988281
5230.116694	3.266667	35.933338	0.331782
5231.163630	3.265025	256.445312	-34.960937
5231.165632	3.267243	256.445312	-34.960937
5231.167632	3.267217	256.445312	-34.960937
5231.169632	3.267002	35.937027	0.404630
5232.191648	3.262910	58.300781	-20.117187
5232.193651	3.266642	58.300781	-20.117187
5232.195651	3.266662	58.300781	-20.117187
5232.197651	3.266712	58.300781	-20.117187
5232.199651	3.266542	35.931969	0.339932
5233.245678	3.265319	254.101562	-34.082031
5233.247681	3.267023	254.101562	-34.082031
5233.249681	3.266895	254.101562	-34.082031
5233.251680	3.266694	35.933632	0.404629
5234.279707	3.267442	53.710937	-34.667969
5234.281711	3.267138	53.710937	-34.667969
5234.283712	3.267003	35.937035	0.564081
5235.327755	3.266459	258.984375	-34.570312
5235.329760	3.267196	258.984375	-34.570312
5235.331765	3.266860	258.984375	-34.570312
5235.333764	3.266800	35.934803	0.409082
5236.359799	3.266608	60.644531	-18.945312
5236.361800	3.267092	60.644531	-18.945312
5236.363799	3.266692	60.644531	-18.945312
5236.365800	3.266604	35.932648	0.435964
5237.412382	3.221955	263.183594	-35.156250
5237.414384	3.267075	263.183594	-35.156250
5237.416386	3.266881	35.935688	0.408039
5238.447359	3.267009	63.867187	-15.625000
5238.449361	3.266886	63.867187	-15.625000
5238.451362	3.266894	35.935829	0.336056
5239.497372	3.266707	255.468750	-31.738281
5239.499374	3.266588	255.468750	-31.738281
5239.501373	3.266642	35.933067	0.406818
5240.527442	3.266188	64.453125	-17.187500
5240.529445	3.267031	64.453125	-17.187500
5240.531448	3.266688	64.453125	-17.187500
5240.533446	3.266628	35.932907	0.341063
5241.576402	3.266080	257.617187	-31.640625
5241.578405	3.267181	257.617187	-31.640625
5241.580404	3.266732	257.617187	-31.640625
5241.582404	3.266620	35.932816	0.410959
5242.608447	3.265003	64.257812	-20.117187
5242.610449	3.267066	64.257812	-20.117187
5242.612448	3.266943	64.257812	-20.117187
5242.614450	3.266634	35.932968	0.343807
5243.658999	3.265921	258.691406	-31.640625
5243.662998	3.266982	258.691406	-31.640625
5243.667005	3.266800	258.691406	-31.640625
5243.669002	3.266851	35.935360	0.411490
5244.693052	3.267217	65.722656	-18.945312
5244.695050	3.266940	65.722656	-18.945312
5244.697051	3.266801	35.934811	0.343585
5245.741078	3.264506	258.496094	-30.859375
5245.743080	3.267117	258.496094	-30.859375
5245.745084	3.267249	258.496094	-30.859375
5245.747084	3.266980	35.936779	0.410944
5246.775091	3.265024	59.570312	-38.378906
5246.777093	3.267016	59.570312	-38.378906
5246.779093	3.266934	59.570312	-38.378906
5246.781095	3.266699	35.933685	0.343158
5247.823106	3.263254	262.792969	-32.128906
5247.825108	3.266624	262.792969	-32.128906
5247.827109	3.266914	262.792969	-32.128906
5247.829110	3.266579	262.792969	-32.128906
5247.831111	3.266564	35.932205	0.413631
5248.859675	3.265986	58.300781	-45.117187
5248.861676	3.267021	58.300781	-45.117187
5248.863676	3.266629	58.300781	-45.117187
5248.865678	3.266530	35.931824	0.342439
5249.907758	3.266065	255.468750	-29.492187
5249.909760	3.267013	255.468750	-29.492187
5249.911761	3.266732	255.468750	-29.492187
5249.913760	3.266550	35.932045	0.414675
5250.943782	3.267256	57.519531	-49.609375
5250.945783	3.267147	57.519531	-49.609375
5250.947783	3.266919	35.936104	0.346730
5251.990262	3.266537	258.593750	-30.078125
5251.992264	3.267173	258.593750	-30.078125
5251.994263	3.266952	258.593750	-30.078125
5251.996265	3.266779	35.934570	0.409358
5253.024267	3.264191	58.593750	-47.460937
5253.026273	3.266841	58.593750	-47.460937
5253.028274	3.266963	58.593750	-47.460937
5253.030274	3.266604	35.932640	0.346601
5254.072366	3.264381	263.183594	-31.347656
5254.074367	3.266919	263.183594	-31.347656
5254.076368	3.266995	263.183594	-31.347656
5254.078368	3.266732	35.934055	0.416850
5255.110396	3.267206	66.406250	-28.027344
5255.112396	3.266915	66.406250	-28.027344
5255.114396	3.266756	35.934315	0.341485
5256.154426	3.263405	261.621094	-31.152344
5256.156427	3.266727	261.621094	-31.152344
5256.158427	3.266902	261.621094	-31.152344
5256.160427	3.266619	261.621094	-31.152344
5256.162426	3.266572	35.932293	0.416213
5257.190966	3.265887	60.156250	-47.656250
5257.192968	3.267464	60.156250	-47.656250
5257.194968	3.267327	60.156250	-47.656250
5257.196968	3.267068	35.937752	0.345823
5258.238992	3.265308	256.347656	-29.492187
5258.240995	3.266913	256.347656	-29.492187
5258.242995	3.266793	256.347656	-29.492187
5258.244995	3.266542	35.931969	0.413128
5259.273052	3.267058	61.621094	-45.703125
5259.275057	3.266956	61.621094	-45.703125
5259.277061	3.266781	35.934589	0.352590
5260.325072	3.267102	260.937500	-31.640625
5260.327074	3.266683	260.937500	-31.640625
5260.329073	3.266543	35.931976	0.409981
5261.357096	3.267198	62.011719	-45.214844
5261.359099	3.266848	62.011719	-45.214844
5261.361099	3.266704	35.933746	0.420335
5262.405649	3.266501	258.984375	-31.542969
5262.407650	3.267084	258.984375	-31.542969
5262.409651	3.266654	258.984375	-31.542969
5262.411651	3.266513	35.931641	0.420139
5263.438241	3.265419	58.593750	-55.468750
5263.444240	3.266919	58.593750	-55.468750
5263.446242	3.266898	58.593750	-55.468750
5263.448243	3.266853	35.935387	0.353564
5264.488342	3.265549	255.273437	-30.761719
5264.490345	3.267455	255.273437	-30.761719
5264.492345	3.267482	255.273437	-30.761719
5264.496342	3.267018	35.937195	0.416072
5265.522443	3.267521	61.523437	-46.972656
5265.524445	3.267225	61.523437	-46.972656
5265.526446	3.267071	35.937778	0.355212
5266.573021	3.266565	251.464844	-30.175781
5266.575023	3.267317	251.464844	-30.175781
5266.577023	3.267069	251.464844	-30.175781
5266.579023	3.266943	35.936371	0.411129
5267.605090	3.265547	55.468750	-61.816406
5267.609089	3.266551	55.468750	-61.816406
5267.611091	3.266611	35.932720	0.353850
5268.655139	3.266599	254.492187	-31.738281
5268.657141	3.266611	254.492187	-31.738281
5268.659141	3.266679	254.492187	-31.738281
5268.661141	3.266575	35.932320	0.419638
5269.687665	3.266993	52.734375	-68.359375
5269.689667	3.266804	52.734375	-68.359375
5269.691666	3.266624	35.932861	0.354090
5270.737707	3.263654	247.656250	-29.980469
5270.739709	3.266837	247.656250	-29.980469
5270.741714	3.267109	247.656250	-29.980469
5270.745711	3.266760	247.656250	-29.980469
5270.747715	3.266758	35.934341	0.417268
5271.767756	3.263126	58.203125	-53.710937
5271.769758	3.266599	58.203125	-53.710937
5271.771758	3.267019	58.203125	-53.710937
5271.773757	3.266749	58.203125	-53.710937
5271.775759	3.266695	35.933651	0.358113
5272.822342	3.266537	253.320312	-31.933594
5272.824344	3.266923	253.320312	-31.933594
5272.826344	3.266613	253.320312	-31.933594
5272.828344	3.266517	35.931690	0.466505
5273.850326	3.266248	59.375000	-53.613281
5273.852329	3.267329	59.375000	-53.613281
5273.854328	3.266949	59.375000	-53.613281
5273.856328	3.266785	35.934635	0.357882
5274.904907	3.266371	248.144531	-30.566406
5274.906907	3.267074	248.144531	-30.566406
5274.908910	3.266707	248.144531	-30.566406
5274.910909	3.266632	35.932949	0.414146
5275.934960	3.265730	54.785156	-67.675781
5275.936960	3.267017	54.785156	-67.675781
5275.938962	3.266766	54.785156	-67.675781
5275.940961	3.266627	35.932899	0.354203
5276.989045	3.267167	249.511719	-30.859375
5276.991045	3.267087	249.511719	-30.859375
5276.993046	3.266844	35.935280	0.419214
5278.017592	3.267064	52.734375	-75.000000
5278.019593	3.267543	52.734375	-75.000000
5278.021594	3.267212	52.734375	-75.000000
5278.023593	3.267068	35.937752	0.410786
5279.071610	3.266927	248.046875	-30.664062
5279.073613	3.267494	248.046875	-30.664062
5279.075611	3.267150	248.046875	-30.664062
5279.077612	3.267069	35.937763	0.415208
5280.099630	3.266654	54.394531	-73.730469
5280.101633	3.267277	54.394531	-73.730469
5280.103632	3.267026	54.394531	-73.730469
5280.105637	3.266957	35.936523	0.356073
5281.153647	3.265659	248.339844	-30.859375
5281.155649	3.267137	248.339844	-30.859375
5281.157648	3.266851	248.339844	-30.859375
5281.159650	3.266659	35.933250	0.418830
5282.181692	3.264710	58.203125	-65.429687
5282.183694	3.267193	58.203125	-65.429687
5282.185696	3.267325	58.203125	-65.429687
5282.187694	3.267327	35.940598	0.360081
5283.240284	3.267344	245.117187	-30.761719
5283.244285	3.266943	245.117187	-30.761719
5283.246284	3.266807	35.934872	0.415255
5284.264309	3.265582	55.761719	-74.414062
5284.266312	3.267462	55.761719	-74.414062
5284.268310	3.267427	55.761719	-74.414062
5284.270310	3.267148	35.938629	0.361937
5285.320346	3.265720	248.632812	-31.054687
5285.322349	3.267231	248.632812	-31.054687
5285.324348	3.266974	248.632812	-31.054687
5285.326346	3.266683	35.933517	0.417444
5286.348890	3.266884	57.519531	-68.066406
5286.350894	3.267390	57.519531	-68.066406
5286.352895	3.267027	57.519531	-68.066406
5286.354894	3.266926	35.936184	0.360990
5287.405481	3.267259	248.925781	-31.347656
5287.407482	3.266860	248.925781	-31.347656
5287.409482	3.266713	35.933846	0.417378
5288.435443	3.267062	57.421875	-70.117187
5288.437444	3.266655	57.421875	-70.117187
5288.439445	3.266582	35.932400	0.562341
5289.483974	3.263221	248.632812	-30.957031
5289.485977	3.266778	248.632812	-30.957031
5289.487976	3.267097	248.632812	-30.957031
5289.489975	3.266786	248.632812	-30.957031
5289.491977	3.266718	35.933899	0.427489
5290.516005	3.266304	52.246094	-85.449219
5290.518007	3.267229	52.246094	-85.449219
5290.520007	3.266873	52.246094	-85.449219
5290.522007	3.266786	35.934643	0.355109
5291.568084	3.266164	247.753906	-30.664062
5291.572084	3.267210	247.753906	-30.664062
5291.574085	3.266795	247.753906	-30.664062
5291.576085	3.266738	35.934120	0.417665
5292.597022	3.263497	53.808594	-83.105469
5292.599023	3.266695	53.808594	-83.105469
5292.601023	3.267055	53.808594	-83.105469
5292.603023	3.266749	53.808594	-83.105469
5292.605023	3.266709	35.933800	0.361013
5293.651101	3.266693	243.554687	-29.199219
5293.653100	3.267570	243.554687	-29.199219
5293.655099	3.267237	243.554687	-29.199219
5293.657099	3.267109	35.938194	0.418228
5294.681158	3.266878	52.929687	-88.476562
5294.683160	3.267253	52.929687	-88.476562
5294.685160	3.267003	52.929687	-88.476562
5294.687160	3.266894	35.935829	0.424310
5295.733173	3.265605	239.062500	-27.734375
5295.735176	3.267488	239.062500	-27.734375
5295.737175	3.267398	239.062500	-27.734375
5295.739177	3.267141	35.938549	0.421701
5296.765202	3.267456	61.035156	-67.773437
5296.767203	3.267151	61.035156	-67.773437
5296.769203	3.267076	35.937832	0.360613
5297.816145	3.264507	241.992187	-28.515625
5297.818147	3.267064	241.992187	-28.515625
5297.820146	3.267165	241.992187	-28.515625
5297.822148	3.266890	35.935783	0.422046
5298.846271	3.264490	58.007812	-76.464844
5298.848277	3.267045	58.007812	-76.464844
5298.850285	3.267052	58.007812	-76.464844
5298.852287	3.266853	35.935387	0.362657
5299.898890	3.264212	236.035156	-26.855469
5299.900899	3.266886	236.035156	-26.855469
5299.902900	3.267017	236.035156	-26.855469
5299.904900	3.266732	35.934055	0.428992
5300.933404	3.267262	51.855469	-95.800781
5300.937404	3.266743	51.855469	-95.800781
5300.939406	3.266687	35.933552	0.356960
5301.981459	3.265917	242.871094	-28.027344
5301.983460	3.267253	242.871094	-28.027344
5301.985459	3.266972	242.871094	-28.027344
5301.989459	3.266727	35.933998	0.424273
5303.017514	3.266753	55.371094	-85.253906
5303.019517	3.266530	55.371094	-85.253906
5303.021517	3.266629	35.932915	0.360780
5304.067548	3.267151	235.156250	-26.660156
5304.069550	3.266857	235.156250	-26.660156
5304.073549	3.266819	35.935013	0.451893
5305.095583	3.263877	54.101562	-89.355469
5305.097585	3.266909	54.101562	-89.355469
5305.099587	3.267064	54.101562	-89.355469
5305.101584	3.266798	54.101562	-89.355469
5305.103585	3.266729	35.934021	0.364777
5306.147621	3.266065	237.011719	-26.562500
5306.149624	3.267369	237.011719	-26.562500
5306.151623	3.267054	237.011719	-26.562500
5306.153623	3.266891	35.935795	0.423857
5307.179719	3.266051	54.492187	-88.964844
5307.181720	3.267606	54.492187	-88.964844
5307.183719	3.267285	54.492187	-88.964844
5307.185719	3.267116	35.938278	0.362945
5308.229732	3.264390	243.164062	-27.832031
5308.231736	3.266909	243.164062	-27.832031
5308.233738	3.266904	243.164062	-27.832031
5308.235738	3.266659	35.933250	0.431858
5309.262660	3.266270	54.980469	-87.988281
5309.264662	3.266987	54.980469	-87.988281
5309.266664	3.266561	54.980469	-87.988281
5309.268663	3.266495	35.931442	0.364710
5310.312682	3.266032	238.867187	-26.367187
5310.314682	3.267454	238.867187	-26.367187
5310.316682	3.267138	238.867187	-26.367187
5310.320682	3.266910	35.936008	0.425501
5311.348726	3.267099	55.273437	-87.402344
5311.350726	3.266843	55.273437	-87.402344
5311.352727	3.266692	35.933613	0.361978
5312.395265	3.264221	244.433594	-27.539062
5312.399265	3.266973	244.433594	-27.539062
5312.401268	3.266722	244.433594	-27.539062
5312.403267	3.266680	35.933483	0.425905
5313.429299	3.265280	49.218750	-106.250000
5313.431302	3.267334	49.218750	-106.250000
5313.433302	3.267345	49.218750	-106.250000
5313.435303	3.266984	35.936825	0.365630
5314.477406	3.266090	241.113281	-26.269531
5314.479409	3.267295	241.113281	-26.269531
5314.481408	3.267082	241.113281	-26.269531
5314.483410	3.266899	35.935894	0.427133
5315.512018	3.263466	57.128906	-84.667969
5315.514019	3.266929	57.128906	-84.667969
5315.516021	3.267278	57.128906	-84.667969
5315.518021	3.266912	57.128906	-84.667969
5315.520020	3.266859	35.935448	0.370953
5316.560968	3.265737	232.714844	-24.511719
5316.562969	3.267336	232.714844	-24.511719
5316.564972	3.267154	232.714844	-24.511719
5316.566970	3.266882	35.935707	0.423470
5317.595023	3.265281	53.515625	-98.046875
5317.597025	3.267194	53.515625	-98.046875
5317.599025	3.267088	53.515625	-98.046875
5317.601024	3.266862	35.935482	0.366612
5318.645052	3.266695	232.519531	-24.023437
5318.647057	3.266952	232.519531	-24.023437
5318.649052	3.266619	232.519531	-24.023437
5318.651053	3.266650	35.933155	0.424429
5319.679127	3.266737	52.441406	-104.296875
5319.681129	3.267034	52.441406	-104.296875
5319.683129	3.266690	52.441406	-104.296875
5319.685130	3.266587	35.932461	0.480760
5320.725194	3.264862	238.671875	-25.292969
5320.727195	3.267067	238.671875	-25.292969
5320.729196	3.266997	238.671875	-25.292969
5320.731196	3.266820	35.935024	0.425642
5321.763229	3.265948	50.781250	-112.695312
5321.765228	3.267101	50.781250	-112.695312
5321.767230	3.266777	50.781250	-112.695312
5321.769229	3.266675	35.933426	0.360577
5322.809298	3.267030	239.355469	-25.097656
5322.813300	3.266846	239.355469	-25.097656
5322.815303	3.266871	239.355469	-25.097656
5322.817302	3.266803	35.934830	0.703399
5323.843842	3.265149	59.667969	-88.378906
5323.845845	3.267264	59.667969	-88.378906
5323.847844	3.267276	59.667969	-88.378906
5323.849843	3.266915	35.936062	0.371113
5324.893842	3.267094	234.472656	-23.632812
5324.895843	3.267081	234.472656	-23.632812
5324.897844	3.266778	35.934563	0.429523
5325.927886	3.266403	56.347656	-101.367187
5325.931885	3.267196	56.347656	-101.367187
5325.933888	3.267021	56.347656	-101.367187
5325.935887	3.266983	35.936813	0.366557
5326.980006	3.266745	232.910156	-23.046875
5326.982008	3.266940	232.910156	-23.046875
5326.984008	3.266599	35.932587	0.421436
5328.012054	3.265170	52.441406	-116.992187
5328.014056	3.267253	52.441406	-116.992187
5328.016055	3.267212	52.441406	-116.992187
5328.018056	3.266911	35.936016	0.363114
5329.056073	3.264077	235.839844	-22.851562
5329.058073	3.267246	235.839844	-22.851562
5329.060074	3.267565	235.839844	-22.851562
5329.062074	3.267261	235.839844	-22.851562
5329.064073	3.267183	35.939011	0.427202
5330.096109	3.266904	50.585937	-126.367187
5330.098110	3.267056	50.585937	-126.367187
5330.100114	3.266726	35.933987	0.364885
5331.140174	3.266846	234.179687	-21.875000
5331.142171	3.267287	234.179687	-21.875000
5331.144175	3.266932	234.179687	-21.875000
5331.146175	3.266898	35.935883	0.489439
5332.178227	3.266720	59.863281	-100.683594
5332.180229	3.267524	59.863281	-100.683594
5332.182227	3.267076	59.863281	-100.683594
5332.184229	3.266948	35.936432	0.365837
5333.223207	3.266647	234.082031	-22.070312
5333.225210	3.267329	234.082031	-22.070312
5333.227209	3.266963	234.082031	-22.070312
5333.229209	3.266856	35.935413	0.418550
5334.261319	3.265794	51.367187	-128.710937
5334.263323	3.267327	51.367187	-128.710937
5334.265321	3.267114	51.367187	-128.710937
5334.267321	3.266898	35.935875	0.362521
5335.307413	3.267494	237.597656	-22.656250
5335.311413	3.267109	237.597656	-22.656250
5335.313415	3.267118	35.938293	0.425221
5336.341976	3.266301	54.199219	-121.582031
5336.343976	3.267353	54.199219	-121.582031
5336.345977	3.267000	54.199219	-121.582031
5336.347977	3.266954	35.936493	0.373385
5337.392015	3.266821	238.378906	-22.265625
5337.394016	3.266749	35.934242	0.434030
5338.424573	3.263358	57.031250	-114.843750
5338.426574	3.266734	57.031250	-114.843750
5338.428576	3.266749	57.031250	-114.843750
5338.430574	3.266741	57.031250	-114.843750
5338.432575	3.266628	35.932907	0.370808
5339.470620	3.266210	238.769531	-22.167969
5339.472622	3.267446	238.769531	-22.167969
5339.474622	3.267228	238.769531	-22.167969
5339.478620	3.267102	35.938118	0.424253
5340.511204	3.267181	50.781250	-135.058594
5340.513206	3.266849	50.781250	-135.058594
5340.515206	3.266726	35.933987	0.365474
5341.555245	3.266633	235.058594	-21.582031
5341.557246	3.267164	235.058594	-21.582031
5341.559247	3.266745	235.058594	-21.582031
5341.561247	3.266720	35.933914	0.473675
5342.595270	3.267188	60.156250	-107.031250
5342.597272	3.266846	60.156250	-107.031250
5342.599271	3.266699	35.933685	0.363235
5343.640246	3.267474	233.203125	-21.582031
5343.642250	3.267101	233.203125	-21.582031
5343.644250	3.266997	35.936966	0.419136
5344.674286	3.264266	59.667969	-108.398437
5344.676306	3.266947	59.667969	-108.398437
5344.678307	3.267026	59.667969	-108.398437
5344.680308	3.266831	59.667969	-108.398437
5344.682307	3.266687	35.933563	0.374220
5345.720297	3.265795	229.003906	-20.898437
5345.722299	3.267616	229.003906	-20.898437
5345.724297	3.267364	229.003906	-20.898437
5345.728296	3.267123	35.938354	0.427280
5346.758367	3.266117	50.683594	-134.472656
5346.760367	3.267515	50.683594	-134.472656
5346.762368	3.267225	50.683594	-134.472656
5346.764369	3.267046	35.937508	0.365228
5347.802386	3.265296	228.222656	-21.484375
5347.804388	3.267380	228.222656	-21.484375
5347.806388	3.267382	228.222656	-21.484375
5347.808387	3.267131	35.938438	0.415985
5348.840439	3.265648	48.535156	-144.238281
5348.842443	3.267343	48.535156	-144.238281
5348.844443	3.267134	48.535156	-144.238281
5348.846442	3.266994	35.936928	0.374113
5349.888471	3.267429	231.445312	-22.265625
5349.890474	3.267014	231.445312	-22.265625
5349.892471	3.266905	35.935951	0.418278
5350.923031	3.265717	48.242187	-140.332031
5350.925033	3.267118	48.242187	-140.332031
5350.927035	3.266838	48.242187	-140.332031
5350.929039	3.266674	35.933411	0.372055
5351.969081	3.267104	232.812500	-22.656250
5351.971084	3.267441	232.812500	-22.656250
5351.973082	3.267058	232.812500	-22.656250
5351.975085	3.266977	35.936752	0.633368
