time (s)	coil I (A)	last det (V)	int current (uC)
8443.473088	3.265864	20.703125	128.710937
8443.475088	3.267397	20.703125	128.710937
8443.477088	3.267599	20.703125	128.710937
8443.479088	3.267140	20.703125	128.710937
8443.481089	3.266948	35.936432	0.067460
8444.553123	3.264254	249.707031	-44.433594
8444.555126	3.267232	249.707031	-44.433594
8444.557135	3.267647	249.707031	-44.433594
8444.559129	3.267388	249.707031	-44.433594
8444.561130	3.267082	249.707031	-44.433594
8444.563131	3.267005	35.937054	0.098239
8445.553162	3.266192	19.628906	121.679687
8445.555164	3.267264	19.628906	121.679687
8445.557164	3.267472	19.628906	121.679687
8445.561162	3.266759	19.628906	121.679687
8445.563164	3.266617	35.932789	0.063566
8446.641261	3.265750	248.339844	-46.093750
8446.643261	3.267331	248.339844	-46.093750
8446.645261	3.267547	248.339844	-46.093750
8446.647262	3.267057	248.339844	-46.093750
8446.649261	3.266962	35.936584	0.106789
8447.619286	3.265949	21.289062	139.746094
8447.621289	3.267335	21.289062	139.746094
8447.625287	3.267273	21.289062	139.746094
8447.629287	3.266916	21.289062	139.746094
8447.631289	3.266828	35.935112	0.079128
8448.731382	3.267092	248.046875	-46.191406
8448.733384	3.267137	248.046875	-46.191406
8448.735384	3.266642	248.046875	-46.191406
8448.737385	3.266500	35.931496	0.089085
8449.725912	3.265239	17.578125	132.324219
8449.727914	3.267102	17.578125	132.324219
8449.729913	3.267377	17.578125	132.324219
8449.731912	3.266998	17.578125	132.324219
8449.733913	3.266669	35.933357	0.061104
8450.811920	3.267087	247.558594	-45.312500
8450.813921	3.267633	247.558594	-45.312500
8450.815921	3.267270	247.558594	-45.312500
8450.817922	3.266893	35.935822	0.522435
8451.796886	3.266717	18.457031	143.652344
8451.800888	3.267498	18.457031	143.652344
8451.802888	3.267013	18.457031	143.652344
8451.804890	3.266856	35.935413	0.067147
8452.895878	3.266865	241.992187	-43.457031
8452.897880	3.267330	241.992187	-43.457031
8452.899887	3.266955	241.992187	-43.457031
8452.901896	3.266653	35.933182	0.103126
8453.882008	3.266629	17.480469	136.914062
8453.884011	3.267239	17.480469	136.914062
8453.886010	3.267209	17.480469	136.914062
8453.888011	3.266670	17.480469	136.914062
8453.890012	3.266590	35.932487	0.071632
8454.976558	3.264391	246.191406	-44.238281
8454.978559	3.266894	246.191406	-44.238281
8454.980562	3.267406	246.191406	-44.238281
8454.982559	3.267122	246.191406	-44.238281
8454.984557	3.266778	35.934551	0.091515
8455.979127	3.267420	13.183594	113.183594
8455.981129	3.267712	13.183594	113.183594
8455.983129	3.267130	13.183594	113.183594
8455.985130	3.266882	35.935707	0.060161
8457.059159	3.265811	240.332031	-42.871094
8457.061161	3.267137	240.332031	-42.871094
8457.063161	3.267335	240.332031	-42.871094
8457.065160	3.266762	240.332031	-42.871094
8457.067161	3.266587	35.932461	0.107242
8458.057189	3.267274	17.285156	128.320312
8458.059191	3.267196	17.285156	128.320312
8458.061192	3.266783	17.285156	128.320312
8458.063192	3.266720	35.933914	0.124709
8459.148158	3.267380	244.726562	-43.847656
8459.150159	3.267650	244.726562	-43.847656
8459.152161	3.267041	244.726562	-43.847656
8459.154161	3.266879	35.935669	0.093397
8460.130193	3.265077	16.699219	118.261719
8460.132194	3.267034	16.699219	118.261719
8460.134195	3.267310	16.699219	118.261719
8460.136194	3.266877	16.699219	118.261719
8460.138194	3.266744	35.934181	0.066889
8461.232242	3.267151	237.207031	-42.675781
8461.234244	3.267124	237.207031	-42.675781
8461.236243	3.266664	237.207031	-42.675781
8461.238243	3.266559	35.932152	0.097460
8462.220283	3.266086	17.675781	108.886719
8462.222288	3.267167	17.675781	108.886719
8462.224291	3.267299	17.675781	108.886719
8462.226295	3.266733	17.675781	108.886719
8462.228293	3.266647	35.933117	0.069062
8463.310384	3.267350	239.648437	-43.652344
8463.312384	3.267692	239.648437	-43.652344
8463.314384	3.267159	239.648437	-43.652344
8463.318384	3.266860	35.935459	0.099251
8464.304478	3.266961	17.968750	96.875000
8464.306480	3.267446	17.968750	96.875000
8464.308481	3.267194	17.968750	96.875000
8464.310481	3.266836	17.968750	96.875000
8464.312480	3.266717	35.933887	0.372214
8465.398493	3.265909	242.968750	-44.433594
8465.400494	3.267363	242.968750	-44.433594
8465.402494	3.267541	242.968750	-44.433594
8465.404495	3.267058	242.968750	-44.433594
8465.406494	3.266878	35.935661	0.094274
8466.397446	3.267236	19.824219	91.015625
8466.399448	3.267600	19.824219	91.015625
8466.401447	3.267164	19.824219	91.015625
8466.403448	3.266932	35.936256	0.062445
8467.472434	3.266910	245.214844	-42.675781
8467.474436	3.267255	245.214844	-42.675781
8467.476437	3.266937	245.214844	-42.675781
8467.478436	3.266611	35.932720	0.105061
8468.472965	3.265747	20.410156	89.062500
8468.474966	3.267281	20.410156	89.062500
8468.476967	3.267634	20.410156	89.062500
8468.478967	3.267140	20.410156	89.062500
8468.482965	3.266896	35.935856	0.069770
8469.557015	3.266459	246.386719	-38.964844
8469.559017	3.267321	246.386719	-38.964844
8469.561016	3.267406	246.386719	-38.964844
8469.563018	3.266889	246.386719	-38.964844
8469.565016	3.266732	35.934048	0.094919
8470.565058	3.267588	20.996094	94.140625
8470.569057	3.267208	20.996094	94.140625
8470.571060	3.266986	20.996094	94.140625
8470.573060	3.266991	35.936901	0.067097
8471.643091	3.267057	236.914062	-37.304687
8471.645099	3.267577	236.914062	-37.304687
8471.647103	3.267286	236.914062	-37.304687
8471.649102	3.266874	35.935608	0.100088
8472.653108	3.267435	18.261719	99.121094
8472.657109	3.266920	18.261719	99.121094
8472.659109	3.266792	18.261719	99.121094
8472.661109	3.266741	35.934147	0.066974
8473.725644	3.266279	234.375000	-39.355469
8473.727644	3.267167	234.375000	-39.355469
8473.729645	3.267202	234.375000	-39.355469
8473.731644	3.266700	234.375000	-39.355469
8473.733645	3.266708	35.933792	0.097992
8474.725725	3.265930	16.015625	100.000000
8474.727728	3.267322	16.015625	100.000000
8474.729729	3.267443	16.015625	100.000000
8474.731728	3.266940	16.015625	100.000000
8474.733727	3.266706	35.933765	0.068846
8475.814677	3.265774	230.664062	-40.039062
8475.816680	3.267109	230.664062	-40.039062
8475.818679	3.267325	230.664062	-40.039062
8475.820680	3.266904	230.664062	-40.039062
8475.822679	3.266629	35.932922	0.095880
8476.814696	3.265019	14.843750	65.917969
8476.816698	3.266976	14.843750	65.917969
8476.818698	3.267277	14.843750	65.917969
8476.820697	3.266926	14.843750	65.917969
8476.822698	3.266654	35.933189	0.064422
8477.896785	3.266104	234.863281	-41.894531
8477.898786	3.267128	234.863281	-41.894531
8477.900787	3.267152	234.863281	-41.894531
8477.906787	3.266519	234.863281	-41.894531
8477.908792	3.266521	35.931725	0.095095
8478.896853	3.266562	19.628906	69.726562
8478.898856	3.267242	19.628906	69.726562
8478.900855	3.267031	19.628906	69.726562
8478.902855	3.266695	19.628906	69.726562
8478.904854	3.266522	35.931744	0.251797
8479.982834	3.267027	239.160156	-40.625000
8479.984835	3.266720	239.160156	-40.625000
8479.986835	3.266559	35.932152	0.373523
8480.979399	3.265151	19.238281	50.000000
8480.981405	3.266956	19.238281	50.000000
8480.983408	3.267281	19.238281	50.000000
8480.985410	3.266836	19.238281	50.000000
8480.989405	3.266551	35.932064	0.065472
8482.057515	3.264970	239.062500	-37.207031
8482.061515	3.267432	239.062500	-37.207031
8482.063517	3.266989	239.062500	-37.207031
8482.065516	3.266808	35.934891	0.105206
8483.067575	3.266658	20.800781	59.277344
8483.069576	3.267289	20.800781	59.277344
8483.071578	3.267147	20.800781	59.277344
8483.073577	3.266662	20.800781	59.277344
8483.075578	3.266547	35.932018	0.222469
8484.137657	3.266632	239.941406	-35.839844
8484.139662	3.267287	239.941406	-35.839844
8484.141659	3.267089	239.941406	-35.839844
8484.143662	3.266687	239.941406	-35.839844
8484.145661	3.266624	35.932869	0.260162
8485.157748	3.267149	19.531250	65.820312
8485.159749	3.266672	19.531250	65.820312
8485.161748	3.266611	35.932720	0.061525
8486.226319	3.265867	230.761719	-35.644531
8486.228322	3.267042	230.761719	-35.644531
8486.230322	3.267098	230.761719	-35.644531
8486.232322	3.266645	230.761719	-35.644531
8486.234321	3.266523	35.931755	0.102715
8487.232378	3.265804	17.187500	64.160156
8487.234380	3.266977	17.187500	64.160156
8487.236381	3.267277	17.187500	64.160156
8487.238381	3.266713	17.187500	64.160156
8487.240380	3.266526	35.931782	0.068454
8488.310446	3.266919	234.472656	-37.890625
8488.312447	3.267648	234.472656	-37.890625
8488.314448	3.267461	234.472656	-37.890625
8488.316447	3.266994	234.472656	-37.890625
8488.318446	3.266933	35.936264	0.253178
8489.318510	3.266960	15.332031	63.085937
8489.320511	3.267234	15.332031	63.085937
8489.322511	3.266820	15.332031	63.085937
8489.324511	3.266617	35.932781	0.066728
8490.393017	3.265333	227.050781	-37.011719
8490.395018	3.267251	227.050781	-37.011719
8490.397017	3.267583	227.050781	-37.011719
8490.399018	3.267122	227.050781	-37.011719
8490.401019	3.266934	35.936272	0.100473
8491.399106	3.266672	12.890625	46.093750
8491.401107	3.267409	12.890625	46.093750
8491.403109	3.267542	12.890625	46.093750
8491.405108	3.266911	12.890625	46.093750
8491.407109	3.266782	35.934597	0.067350
8492.475157	3.265762	227.441406	-37.792969
8492.477161	3.267056	227.441406	-37.792969
8492.479159	3.267251	227.441406	-37.792969
8492.481160	3.266757	227.441406	-37.792969
8492.483161	3.266538	35.931923	0.102455
8493.483183	3.262973	12.402344	35.449219
8493.485186	3.266607	12.402344	35.449219
8493.487184	3.267276	12.402344	35.449219
8493.489184	3.267088	12.402344	35.449219
8493.491185	3.266667	12.402344	35.449219
8493.493184	3.266593	35.932526	0.066554
8494.563238	3.266290	222.363281	-36.523437
8494.565241	3.267098	222.363281	-36.523437
8494.567241	3.267043	222.363281	-36.523437
8494.569242	3.266641	222.363281	-36.523437
8494.571243	3.266467	35.931133	0.100801
8495.567303	3.267342	14.648437	51.562500
8495.569304	3.267150	14.648437	51.562500
8495.571305	3.266765	14.648437	51.562500
8495.573306	3.266649	35.933136	0.076828
8496.647861	3.267448	221.875000	-36.230469
8496.649861	3.267401	221.875000	-36.230469
8496.651862	3.267140	221.875000	-36.230469
8496.653862	3.266926	35.936184	0.098801
8497.651889	3.265507	12.890625	31.347656
8497.655889	3.267256	12.890625	31.347656
8497.657889	3.266791	12.890625	31.347656
8497.659890	3.266617	35.932781	0.068078
8498.729959	3.266654	226.953125	-36.621094
8498.731960	3.267412	226.953125	-36.621094
8498.733959	3.267272	226.953125	-36.621094
8498.735961	3.266902	226.953125	-36.621094
8498.737961	3.266827	35.935097	0.098025
8499.734492	3.266856	14.843750	44.628906
8499.736495	3.267547	14.843750	44.628906
8499.738494	3.267514	14.843750	44.628906
8499.740494	3.267060	14.843750	44.628906
8499.742494	3.266991	35.936901	0.067314
8500.811458	3.266461	229.199219	-36.328125
8500.813459	3.266517	229.199219	-36.328125
8500.815461	3.267471	229.199219	-36.328125
8500.819460	3.266838	229.199219	-36.328125
8500.823459	3.266813	35.934944	0.102195
8501.823477	3.264220	13.574219	15.820312
8501.825479	3.266877	13.574219	15.820312
8501.827487	3.267329	13.574219	15.820312
8501.829492	3.267097	13.574219	15.820312
8501.831492	3.266722	13.574219	15.820312
8501.833490	3.266648	35.933125	0.066693
8502.893504	3.266748	229.296875	-35.156250
8502.895507	3.267311	229.296875	-35.156250
8502.897508	3.267029	229.296875	-35.156250
8502.899509	3.266633	229.296875	-35.156250
8502.901507	3.266597	35.932568	0.099069
8503.910075	2.144972	18.066406	24.902344
8503.912080	3.267425	18.066406	24.902344
8503.914078	3.267459	18.066406	24.902344
8503.916078	3.266894	18.066406	24.902344
8503.918079	3.266815	35.934971	0.062095
8504.973028	3.266248	229.785156	-33.984375
8504.975028	3.267200	229.785156	-33.984375
8504.977029	3.267114	229.785156	-33.984375
8504.979028	3.266744	229.785156	-33.984375
8504.981029	3.266592	35.932514	0.103833
8505.993560	3.267291	17.871094	-0.390625
8505.995562	3.267026	17.871094	-0.390625
8505.997564	3.266691	17.871094	-0.390625
8505.999562	3.266652	35.933170	0.067428
8507.059617	2.590895	228.906250	-33.203125
8507.061625	3.267709	228.906250	-33.203125
8507.063624	3.267414	228.906250	-33.203125
8507.065623	3.266989	228.906250	-33.203125
8507.067622	3.266855	35.935406	0.443578
8508.072577	3.266514	19.238281	-0.390625
8508.074579	3.267583	19.238281	-0.390625
8508.082577	3.267007	19.238281	-0.390625
8508.084579	3.266935	19.238281	-0.390625
8508.086579	3.266923	35.936157	0.069456
8509.146637	3.265607	228.027344	-35.839844
8509.148639	3.267423	228.027344	-35.839844
8509.150639	3.267622	228.027344	-35.839844
8509.152639	3.267230	228.027344	-35.839844
8509.154640	3.266970	35.936672	0.096624
8510.156646	3.266037	15.234375	-26.464844
8510.158646	3.267268	15.234375	-26.464844
8510.160647	3.267566	15.234375	-26.464844
8510.162646	3.267045	15.234375	-26.464844
8510.164648	3.266836	35.935192	0.064847
8511.232673	3.266581	225.683594	-38.085937
8511.234676	3.267247	225.683594	-38.085937
8511.236676	3.267077	225.683594	-38.085937
8511.238675	3.266646	225.683594	-38.085937
8511.240676	3.266581	35.932392	0.100927
8512.232708	3.263326	14.453125	-20.312500
8512.234711	3.266658	14.453125	-20.312500
8512.236712	3.267302	14.453125	-20.312500
8512.238711	3.267137	14.453125	-20.312500
8512.240710	3.266729	14.453125	-20.312500
8512.242711	3.266613	35.932739	0.070898
8513.316782	3.266043	218.945312	-36.523437
8513.318782	3.267231	218.945312	-36.523437
8513.320785	3.267384	218.945312	-36.523437
8513.322784	3.266844	218.945312	-36.523437
8513.324784	3.266588	35.932472	0.097733
8514.324832	3.263656	12.695312	-9.570312
8514.326832	3.266740	12.695312	-9.570312
8514.328833	3.267316	12.695312	-9.570312
8514.332832	3.266658	12.695312	-9.570312
8514.334833	3.266624	12.695312	-9.570312
8514.336833	3.266613	35.932747	0.065132
8515.397455	3.266558	215.136719	-34.570312
8515.399457	3.267380	215.136719	-34.570312
8515.401457	3.267431	215.136719	-34.570312
8515.403457	3.266959	215.136719	-34.570312
8515.405456	3.266856	35.935413	0.101483
8516.401513	3.265105	12.207031	-0.292969
8516.405512	3.267356	12.207031	-0.292969
8516.407514	3.266985	12.207031	-0.292969
8516.409515	3.266620	35.932816	0.068602
8517.477580	3.266727	223.437500	-34.667969
8517.479581	3.267643	223.437500	-34.667969
8517.483580	3.267157	223.437500	-34.667969
8517.485581	3.267043	223.437500	-34.667969
8517.487581	3.267031	35.937347	0.102646
8518.495628	3.266682	12.597656	-20.996094
8518.497627	3.267442	12.597656	-20.996094
8518.499627	3.267525	12.597656	-20.996094
8518.501628	3.266944	12.597656	-20.996094
8518.503628	3.266785	35.934635	0.064277
8519.559670	3.266030	215.917969	-31.054687
8519.561672	3.267136	215.917969	-31.054687
8519.563674	3.267307	215.917969	-31.054687
8519.565672	3.266722	215.917969	-31.054687
8519.567673	3.266624	35.932869	0.102120
8520.579741	3.266232	16.699219	-23.242187
8520.581742	3.267168	16.699219	-23.242187
8520.583742	3.267213	16.699219	-23.242187
8520.585741	3.266729	16.699219	-23.242187
8520.587742	3.266600	35.932594	0.065421
8521.643797	3.266106	215.625000	-29.589844
8521.645800	3.267478	215.625000	-29.589844
8521.647799	3.267692	215.625000	-29.589844
8521.649799	3.267273	215.625000	-29.589844
8521.651799	3.267032	35.937355	0.099089
8522.663863	3.263938	17.285156	-38.867187
8522.665863	3.266760	17.285156	-38.867187
8522.667864	3.267293	17.285156	-38.867187
8522.669864	3.267082	17.285156	-38.867187
8522.671864	3.266670	17.285156	-38.867187
8522.673863	3.266637	35.933002	0.066026
8523.723895	3.265683	219.921875	-30.957031
8523.725899	3.267176	219.921875	-30.957031
8523.727898	3.267533	219.921875	-30.957031
8523.729899	3.266994	219.921875	-30.957031
8523.731898	3.266838	35.935219	0.103713
8524.739963	3.266003	17.578125	-40.820312
8524.743963	3.267375	17.578125	-40.820312
8524.745965	3.266883	17.578125	-40.820312
8524.747965	3.266861	35.935474	0.069927
8525.816032	3.267437	220.898437	-33.007812
8525.818034	3.267694	220.898437	-33.007812
8525.820034	3.267131	220.898437	-33.007812
8525.824032	3.267009	35.937096	0.097054
8526.830117	3.266795	15.429687	-64.746094
8526.832119	3.267198	15.429687	-64.746094
8526.834118	3.267178	15.429687	-64.746094
8526.836117	3.266558	35.932144	0.065709
8527.896121	3.054655	218.457031	-33.300781
8527.898121	3.267189	218.457031	-33.300781
8527.900122	3.267089	218.457031	-33.300781
8527.902122	3.266639	218.457031	-33.300781
8527.904120	3.266600	35.932594	0.101880
8528.906701	3.266540	16.503906	-53.613281
8528.908702	3.267263	16.503906	-53.613281
8528.910701	3.267261	16.503906	-53.613281
8528.914702	3.266558	16.503906	-53.613281
8528.916705	3.266571	35.932278	0.068859
8529.980746	3.264948	213.867187	-33.105469
8529.982748	3.266957	213.867187	-33.105469
8529.984749	3.267296	213.867187	-33.105469
8529.986748	3.267300	213.867187	-33.105469
8529.988748	3.266553	35.932083	0.099251
8530.990848	3.264855	17.480469	-51.953125
8530.992850	3.266920	17.480469	-51.953125
8530.994850	3.267402	17.480469	-51.953125
8530.996851	3.266974	17.480469	-51.953125
8530.998850	3.266630	35.932930	0.068921
8532.060907	3.264884	212.109375	-33.105469
8532.062905	3.267089	212.109375	-33.105469
8532.064908	3.267516	212.109375	-33.105469
8532.066908	3.267169	212.109375	-33.105469
8532.068907	3.266797	35.934769	0.102288
8533.076956	3.267597	18.066406	-48.242187
8533.078958	3.267641	18.066406	-48.242187
8533.082955	3.267006	18.066406	-48.242187
8533.084958	3.266956	35.936512	0.068062
8534.149922	3.263848	208.691406	-31.933594
8534.151924	3.267111	208.691406	-31.933594
8534.153926	3.267691	208.691406	-31.933594
8534.155925	3.267508	208.691406	-31.933594
8534.157923	3.267097	208.691406	-31.933594
8534.159925	3.266977	35.936752	0.097369
8535.159963	3.264731	14.941406	-79.296875
8535.161965	3.267050	14.941406	-79.296875
8535.163964	3.267570	14.941406	-79.296875
8535.165966	3.267519	14.941406	-79.296875
8535.167964	3.266784	35.934624	0.067489
8536.232023	3.267227	216.503906	-32.324219
8536.234024	3.267562	216.503906	-32.324219
8536.236024	3.267049	216.503906	-32.324219
8536.238025	3.266766	35.934422	0.102958
8537.248545	3.266650	15.136719	-90.234375
8537.250547	3.267242	15.136719	-90.234375
8537.252546	3.267068	15.136719	-90.234375
8537.254547	3.266653	15.136719	-90.234375
8537.256548	3.266565	35.932213	0.310467
8538.312594	3.266787	210.644531	-30.078125
8538.314598	3.267273	210.644531	-30.078125
8538.316607	3.266993	210.644531	-30.078125
8538.318613	3.266651	210.644531	-30.078125
8538.320613	3.266641	35.933056	0.100292
8539.330677	3.265721	16.601562	-84.375000
8539.332678	3.267258	16.601562	-84.375000
8539.334678	3.267467	16.601562	-84.375000
8539.336677	3.266985	16.601562	-84.375000
8539.338678	3.266899	35.935894	0.066425
8540.396702	3.266364	207.421875	-27.929687
8540.398704	3.267427	207.421875	-27.929687
8540.400702	3.267383	207.421875	-27.929687
8540.402703	3.266915	207.421875	-27.929687
8540.404703	3.266799	35.934795	0.102000
8541.418781	3.263533	15.820312	-96.191406
8541.420783	3.266853	15.820312	-96.191406
8541.422784	3.267492	15.820312	-96.191406
8541.424785	3.267224	15.820312	-96.191406
8541.426784	3.266784	15.820312	-96.191406
8541.430781	3.266760	35.934357	0.065669
8542.478790	3.265960	204.589844	-26.171875
8542.480794	3.267111	204.589844	-26.171875
8542.482792	3.267234	204.589844	-26.171875
8542.484791	3.266765	204.589844	-26.171875
8542.486791	3.266606	35.932667	0.100210
8543.502842	3.265273	15.820312	-90.136719
8543.504844	3.266963	15.820312	-90.136719
8543.506846	3.267265	15.820312	-90.136719
8543.508844	3.266811	15.820312	-90.136719
8543.510843	3.266644	35.933083	0.065325
8544.562895	3.266942	203.808594	-26.757812
8544.564898	3.267349	203.808594	-26.757812
8544.566896	3.266927	203.808594	-26.757812
8544.568895	3.266654	35.933189	0.669752
8545.586914	3.267267	13.867187	-95.898437
8545.588917	3.266977	13.867187	-95.898437
8545.590917	3.266635	35.932983	0.066159
8546.644996	3.266409	211.718750	-29.589844
8546.650996	3.267137	211.718750	-29.589844
8546.653006	3.267004	211.718750	-29.589844
8546.655010	3.266994	35.936928	0.098862
8547.664998	3.264806	10.546875	-95.214844
8547.666999	3.267313	10.546875	-95.214844
8547.668999	3.267758	10.546875	-95.214844
8547.671000	3.267440	10.546875	-95.214844
8547.673001	3.267171	35.938877	0.065567
8548.733074	3.266815	204.980469	-29.687500
8548.735076	3.267169	204.980469	-29.687500
8548.737073	3.266777	204.980469	-29.687500
8548.739074	3.266575	35.932320	0.622579
8549.745681	3.265534	10.644531	-90.136719
8549.747682	3.267193	10.644531	-90.136719
8549.749682	3.267524	10.644531	-90.136719
8549.751681	3.267118	10.644531	-90.136719
8549.753681	3.266806	35.934864	0.069744
8550.817697	3.266883	204.589844	-30.566406
8550.819706	3.267404	204.589844	-30.566406
8550.821701	3.267161	204.589844	-30.566406
8550.823702	3.266696	204.589844	-30.566406
8550.825700	3.266703	35.933731	0.099227
8551.832297	3.267446	10.058594	-117.968750
8551.834298	3.267373	10.058594	-117.968750
8551.836298	3.266871	10.058594	-117.968750
8551.838298	3.266775	35.934525	0.065157
8552.902428	3.265887	198.144531	-30.078125
8552.904430	3.267236	198.144531	-30.078125
8552.906431	3.267387	198.144531	-30.078125
8552.908428	3.266908	198.144531	-30.078125
8552.910429	3.266778	35.934563	0.096364
8553.914456	3.266085	14.843750	-102.929687
8553.916459	3.267171	14.843750	-102.929687
8553.918459	3.267209	14.843750	-102.929687
8553.920459	3.266689	14.843750	-102.929687
8553.922459	3.266583	35.932411	0.068328
8554.983425	3.265377	203.613281	-30.859375
8554.985426	3.265430	203.613281	-30.859375
8554.987426	3.267357	203.613281	-30.859375
8554.989426	3.266962	203.613281	-30.859375
8554.991427	3.266651	35.933163	0.099367
8555.993550	3.265967	15.722656	-120.507812
8555.995553	3.267172	15.722656	-120.507812
8555.997554	3.267206	15.722656	-120.507812
8555.999557	3.266790	15.722656	-120.507812
8556.001556	3.266607	35.932674	0.071698
8557.065567	3.266022	198.046875	-28.125000
8557.067568	3.267324	198.046875	-28.125000
8557.069568	3.267522	198.046875	-28.125000
8557.071569	3.266996	198.046875	-28.125000
8557.073568	3.266849	35.935333	0.102355
8558.087568	3.266514	14.941406	-127.148437
8558.089570	3.267206	14.941406	-127.148437
8558.091569	3.267272	14.941406	-127.148437
8558.093570	3.266794	14.941406	-127.148437
8558.095569	3.266695	35.933640	0.064697
8559.145605	3.266584	197.167969	-25.878906
8559.147608	3.267200	197.167969	-25.878906
8559.149608	3.267263	197.167969	-25.878906
8559.153606	3.266617	197.167969	-25.878906
8559.155607	3.266634	35.932968	0.100430
8560.171668	3.264597	18.164062	-110.351562
8560.173671	3.266924	18.164062	-110.351562
8560.175671	3.267342	18.164062	-110.351562
8560.177671	3.267042	18.164062	-110.351562
8560.179672	3.266695	35.933651	0.063162
8561.226638	3.264257	201.269531	-24.804687
8561.228638	3.267145	201.269531	-24.804687
8561.230639	3.267805	201.269531	-24.804687
8561.232640	3.267550	201.269531	-24.804687
8561.234639	3.267064	201.269531	-24.804687
8561.236638	3.267026	35.937283	0.102265
8562.260718	3.266978	14.550781	-142.773437
8562.264718	3.267109	14.550781	-142.773437
8562.266720	3.266691	14.550781	-142.773437
8562.268723	3.266655	35.933208	0.063354
8563.310848	3.267343	202.148437	-24.609375
8563.314849	3.266721	202.148437	-24.609375
8563.316850	3.266658	202.148437	-24.609375
8563.318849	3.266667	35.933338	0.101085
8564.339407	3.265197	15.625000	-131.445312
8564.341408	3.267442	15.625000	-131.445312
8564.343411	3.267810	15.625000	-131.445312
8564.345409	3.267505	15.625000	-131.445312
8564.347409	3.267195	35.939144	0.066226
8565.393407	3.266762	195.507812	-23.730469
8565.395408	3.267503	195.507812	-23.730469
8565.399408	3.266906	195.507812	-23.730469
8565.401409	3.266893	195.507812	-23.730469
8565.403407	3.266814	35.934952	0.131235
8566.425493	3.267539	16.210937	-125.390625
8566.427496	3.267734	16.210937	-125.390625
8566.429496	3.267117	16.210937	-125.390625
8566.431496	3.266978	35.936760	0.065229
8567.477597	3.267299	193.847656	-23.632812
8567.479599	3.267691	193.847656	-23.632812
8567.481599	3.267221	193.847656	-23.632812
8567.483599	3.266988	35.936867	0.098978
8568.505681	3.266644	15.039062	-129.687500
8568.507682	3.267486	15.039062	-129.687500
8568.509682	3.267436	15.039062	-129.687500
8568.511681	3.266932	15.039062	-129.687500
8568.513681	3.266807	35.934879	0.065183
8569.561732	3.267280	198.242187	-24.804687
8569.563734	3.267546	198.242187	-24.804687
8569.565733	3.267120	198.242187	-24.804687
8569.567734	3.266845	35.935299	0.099260
8570.587777	2.963563	15.820312	-125.390625
8570.593114	3.267690	15.820312	-125.390625
8570.595119	3.267744	15.820312	-125.390625
8570.597123	3.267065	15.820312	-125.390625
8570.599124	3.267019	35.937210	0.063662
8571.643722	3.266757	189.941406	-23.339844
8571.645722	3.267651	189.941406	-23.339844
8571.649721	3.267139	189.941406	-23.339844
8571.651723	3.266976	189.941406	-23.339844
8571.653722	3.266978	35.936760	0.100741
8572.673809	3.265777	14.746094	-136.914062
8572.675810	3.267159	14.746094	-136.914062
8572.677810	3.267292	14.746094	-136.914062
8572.679812	3.266838	14.746094	-136.914062
8572.681813	3.266651	35.933163	0.066334
8573.723908	3.264920	194.531250	-23.632812
8573.725907	3.267012	194.531250	-23.632812
8573.727909	3.267328	194.531250	-23.632812
8573.733906	3.266656	194.531250	-23.632812
8573.735909	3.266748	35.934223	0.104031
8574.761963	3.267655	15.820312	-139.746094
8574.763965	3.267582	15.820312	-139.746094
8574.765966	3.267051	15.820312	-139.746094
8574.769967	3.266866	35.935528	0.115319
8575.810569	1.817703	197.949219	-23.535156
8575.812571	3.267407	197.949219	-23.535156
8575.814570	3.267235	197.949219	-23.535156
8575.816572	3.266818	197.949219	-23.535156
8575.818572	3.266686	35.933544	0.131585
8576.843514	3.265740	16.113281	-151.464844
8576.845516	3.265853	16.113281	-151.464844
8576.847517	3.267319	16.113281	-151.464844
8576.849517	3.266829	16.113281	-151.464844
8576.851514	3.266634	35.932968	0.064447
8577.891592	3.263573	192.285156	-21.875000
8577.893594	3.266967	192.285156	-21.875000
8577.895594	3.267592	192.285156	-21.875000
8577.897595	3.267429	192.285156	-21.875000
8577.901592	3.266904	192.285156	-21.875000
8577.903594	3.266874	35.935616	0.105058
8578.929652	3.266544	17.089844	-154.101562
8578.931654	3.267309	17.089844	-154.101562
8578.935652	3.266778	17.089844	-154.101562
8578.937657	3.266751	17.089844	-154.101562
8578.939662	3.266744	35.934181	0.064224
8579.978233	3.267197	189.746094	-21.582031
8579.980235	3.267386	189.746094	-21.582031
8579.982237	3.266993	189.746094	-21.582031
8579.984236	3.266757	35.934334	0.101859
8581.008302	3.266428	17.285156	-157.519531
8581.010302	3.267715	17.285156	-157.519531
8581.012303	3.267823	17.285156	-157.519531
8581.014303	3.267328	17.285156	-157.519531
8581.016303	3.267102	35.938118	0.065201
8582.062852	3.267561	194.921875	-23.730469
8582.064859	3.267503	194.921875	-23.730469
8582.066863	3.266949	194.921875	-23.730469
8582.068864	3.266885	35.935734	0.353745
8583.091413	3.266711	16.210937	-165.429687
8583.093416	3.267438	16.210937	-165.429687
8583.095415	3.267268	16.210937	-165.429687
8583.097415	3.266760	16.210937	-165.429687
8583.099415	3.266624	35.932861	0.247802
8584.147426	3.266674	191.113281	-25.097656
8584.149427	3.267470	191.113281	-25.097656
8584.151427	3.267349	191.113281	-25.097656
8584.153429	3.266993	191.113281	-25.097656
8584.155429	3.266866	35.935528	0.101281
8585.169476	3.266630	15.722656	-164.746094
8585.171477	3.267293	15.722656	-164.746094
8585.173478	3.267297	15.722656	-164.746094
8585.175479	3.266724	15.722656	-164.746094
8585.177478	3.266645	35.933098	0.069223
8586.232065	3.265112	186.914062	-26.171875
8586.234069	3.267278	186.914062	-26.171875
8586.236067	3.267710	186.914062	-26.171875
8586.238069	3.267276	186.914062	-26.171875
8586.240067	3.266898	35.935875	0.099932
8587.254145	3.267056	13.769531	-170.703125
8587.256144	3.267615	13.769531	-170.703125
8587.258146	3.267678	13.769531	-170.703125
8587.260144	3.266941	13.769531	-170.703125
8587.262145	3.266807	35.934872	0.067474
8588.314766	3.262816	186.914062	-26.074219
8588.316766	3.266608	186.914062	-26.074219
8588.318767	3.267224	186.914062	-26.074219
8588.320768	3.267140	186.914062	-26.074219
8588.322767	3.266639	186.914062	-26.074219
8588.324769	3.266611	35.932720	0.101594
8589.338826	3.266945	9.570312	-189.648437
8589.340827	3.267584	9.570312	-189.648437
8589.342827	3.267452	9.570312	-189.648437
8589.344829	3.266945	9.570312	-189.648437
8589.346827	3.266872	35.935593	0.248030
8590.400876	3.265472	180.859375	-24.316406
8590.402879	3.267408	180.859375	-24.316406
8590.404878	3.267817	180.859375	-24.316406
8590.406879	3.267362	180.859375	-24.316406
8590.408878	3.267083	35.937912	0.098911
8591.420904	3.266964	6.835937	-192.871094
8591.422905	3.267709	6.835937	-192.871094
8591.424906	3.267637	6.835937	-192.871094
8591.426906	3.267128	6.835937	-192.871094
8591.428906	3.267060	35.937656	0.071516
8592.480945	3.266036	181.054687	-23.339844
8592.482947	3.267538	181.054687	-23.339844
8592.484946	3.267772	181.054687	-23.339844
8592.486947	3.267281	181.054687	-23.339844
8592.488947	3.267072	35.937798	0.100515
8593.504967	3.265761	8.203125	-179.882812
8593.506970	3.267289	8.203125	-179.882812
8593.508969	3.267463	8.203125	-179.882812
8593.510969	3.267019	8.203125	-179.882812
8593.512970	3.266825	35.935078	0.066912
8594.565029	3.266895	178.027344	-21.777344
8594.567042	3.267411	178.027344	-21.777344
8594.569041	3.267100	178.027344	-21.777344
8594.573038	3.266662	178.027344	-21.777344
8594.575039	3.266762	35.934376	0.096919
8595.593134	3.265887	8.203125	-195.019531
8595.595136	3.267132	8.203125	-195.019531
8595.597138	3.267241	8.203125	-195.019531
8595.599136	3.266812	8.203125	-195.019531
8595.601136	3.266646	35.933109	0.063353
8596.649181	3.267461	179.003906	-20.996094
8596.651184	3.267082	179.003906	-20.996094
8596.653182	3.266760	35.934357	0.097572
8597.675271	3.264982	11.230469	-199.511719
8597.677274	3.267122	11.230469	-199.511719
8597.679273	3.267420	11.230469	-199.511719
8597.681272	3.267086	11.230469	-199.511719
8597.683275	3.266753	35.934288	0.064829
8598.727305	3.265571	179.882812	-20.019531
8598.729306	3.267101	179.882812	-20.019531
8598.731307	3.267395	179.882812	-20.019531
8598.733307	3.266948	179.882812	-20.019531
8598.735308	3.266661	35.933266	0.098049
8599.763398	3.265327	12.207031	-214.160156
8599.765400	3.267118	12.207031	-214.160156
8599.767402	3.267514	12.207031	-214.160156
8599.769399	3.266986	12.207031	-214.160156
8599.771400	3.266774	35.934517	0.064130
8600.809452	3.264139	181.542969	-19.042969
8600.811452	3.266907	181.542969	-19.042969
8600.813458	3.267406	181.542969	-19.042969
8600.815458	3.267162	181.542969	-19.042969
8600.817457	3.266771	181.542969	-19.042969
8600.819457	3.266705	35.933754	0.102172
8601.847527	3.266924	15.820312	-196.679687
8601.849531	3.267557	15.820312	-196.679687
8601.851529	3.267370	15.820312	-196.679687
8601.853528	3.266940	15.820312	-196.679687
8601.855529	3.266874	35.935608	0.270565
8602.897575	3.267791	186.035156	-19.531250
8602.899575	3.267776	186.035156	-19.531250
8602.901575	3.267269	186.035156	-19.531250
8602.903575	3.267130	35.938427	0.098424
8603.928149	3.266754	16.503906	-199.121094
8603.930151	3.267414	16.503906	-199.121094
8603.932151	3.267347	16.503906	-199.121094
8603.934151	3.266941	16.503906	-199.121094
8603.936152	3.266748	35.934223	0.068962
8604.978743	3.266783	183.007812	-19.238281
8604.980744	3.267508	183.007812	-19.238281
8604.982744	3.267421	183.007812	-19.238281
8604.984743	3.266947	183.007812	-19.238281
8604.986744	3.266873	35.935600	0.166080
8606.012802	3.266508	13.574219	-225.097656
8606.014804	3.267313	13.574219	-225.097656
8606.016811	3.267225	13.574219	-225.097656
8606.018814	3.266820	13.574219	-225.097656
8606.020813	3.266757	35.934326	0.065823
8607.062882	3.267008	183.300781	-19.824219
8607.064885	3.267578	183.300781	-19.824219
8607.066884	3.267425	183.300781	-19.824219
8607.068884	3.266932	183.300781	-19.824219
8607.070884	3.266832	35.935158	0.397370
8608.091420	3.265884	16.113281	-209.082031
8608.093421	3.267455	16.113281	-209.082031
8608.095422	3.267118	16.113281	-209.082031
8608.097421	3.266690	35.933586	0.070113
8609.143964	3.264883	181.054687	-19.531250
8609.145966	3.267234	181.054687	-19.531250
8609.147966	3.267731	181.054687	-19.531250
8609.149967	3.267316	181.054687	-19.531250
8609.151968	3.266967	35.936638	0.100600
8610.177970	3.264143	12.500000	-238.378906
8610.179971	3.266950	12.500000	-238.378906
8610.181973	3.267527	12.500000	-238.378906
8610.183971	3.267284	12.500000	-238.378906
8610.185971	3.266857	12.500000	-238.378906
8610.187971	3.266816	35.934978	0.066645
8611.230023	3.267411	180.371094	-19.335937
8611.232026	3.267531	180.371094	-19.335937
8611.234025	3.267436	180.371094	-19.335937
8611.236025	3.266817	35.934990	0.100621
8612.264068	3.267037	15.429687	-220.312500
8612.266071	3.267391	15.429687	-220.312500
8612.268069	3.267080	15.429687	-220.312500
8612.270071	3.266737	35.934101	0.593337
8613.309054	3.266691	183.300781	-18.750000
8613.311056	3.267346	183.300781	-18.750000
8613.313056	3.267150	183.300781	-18.750000
8613.315056	3.266757	183.300781	-18.750000
8613.317055	3.266677	35.933445	0.101577
8614.347659	3.266110	12.988281	-241.894531
8614.349659	3.267384	12.988281	-241.894531
8614.351659	3.267558	12.988281	-241.894531
8614.355659	3.266819	12.988281	-241.894531
8614.357659	3.266788	35.934669	0.066811
8615.393719	3.266629	175.976562	-17.285156
8615.395721	3.267346	175.976562	-17.285156
8615.397722	3.267251	175.976562	-17.285156
8615.399722	3.266794	175.976562	-17.285156
8615.401721	3.266801	35.934811	0.098965
8616.431768	3.264611	15.917969	-224.218750
8616.433771	3.266944	15.917969	-224.218750
8616.435780	3.267350	15.917969	-224.218750
8616.437784	3.267079	15.917969	-224.218750
8616.439789	3.266634	35.932976	0.066204
8617.474775	3.263214	179.980469	-17.187500
8617.476778	3.266720	179.980469	-17.187500
8617.478779	3.267376	179.980469	-17.187500
8617.480777	3.267233	179.980469	-17.187500
8617.482777	3.266794	179.980469	-17.187500
8617.484777	3.266618	35.932796	0.101941
8618.515330	3.263785	13.378906	-240.722656
8618.517333	3.263964	13.378906	-240.722656
8618.519332	3.267442	13.378906	-240.722656
8618.521331	3.267263	13.378906	-240.722656
8618.527331	3.266697	13.378906	-240.722656
8618.529332	3.266667	35.933338	0.068777
8619.563384	3.265008	170.507812	-16.699219
8619.565386	3.266985	170.507812	-16.699219
8619.567385	3.267301	170.507812	-16.699219
8619.569386	3.266937	170.507812	-16.699219
8619.571386	3.266638	35.933022	0.095635
8620.597435	3.266294	10.351562	-244.140625
8620.599438	3.267259	10.351562	-244.140625
8620.601436	3.267284	10.351562	-244.140625
8620.603437	3.266895	10.351562	-244.140625
8620.605436	3.266733	35.934067	0.065421
8621.643464	3.265837	168.554687	-17.382812
8621.645466	3.267388	168.554687	-17.382812
8621.647467	3.267700	168.554687	-17.382812
8621.649466	3.267094	168.554687	-17.382812
8621.651465	3.266881	35.935696	0.119017
8622.679506	3.265672	9.765625	-232.714844
8622.681506	3.267607	9.765625	-232.714844
8622.683507	3.267927	9.765625	-232.714844
8622.685506	3.267472	9.765625	-232.714844
8622.687506	3.267163	35.938789	0.063067
8623.725582	3.264175	172.753906	-18.750000
8623.727583	3.266875	172.753906	-18.750000
8623.729589	3.267344	172.753906	-18.750000
8623.731594	3.267110	172.753906	-18.750000
8623.733599	3.266701	35.933712	0.101591
8624.761662	3.266799	8.007812	-228.417969
8624.763663	3.266892	8.007812	-228.417969
8624.765663	3.267152	8.007812	-228.417969
8624.767663	3.266799	8.007812	-228.417969
8624.769664	3.266711	35.933826	0.337697
8625.813709	3.264888	171.386719	-20.214844
8625.815709	3.267215	171.386719	-20.214844
8625.817711	3.267669	171.386719	-20.214844
8625.819711	3.267300	171.386719	-20.214844
8625.821710	3.266874	35.935608	0.095977
8626.844646	3.266497	5.468750	-240.429687
8626.846648	3.267716	5.468750	-240.429687
8626.848649	3.267842	5.468750	-240.429687
8626.850649	3.267771	5.468750	-240.429687
8626.852647	3.267153	35.938683	0.062884
8627.899234	3.267441	164.550781	-19.628906
8627.901237	3.267649	164.550781	-19.628906
8627.903236	3.267038	164.550781	-19.628906
8627.905237	3.266953	35.936478	0.097143
8628.921328	3.264640	6.347656	-246.972656
8628.923329	3.267342	6.347656	-246.972656
8628.925338	3.267923	6.347656	-246.972656
8628.927345	3.267615	6.347656	-246.972656
8628.929345	3.267155	6.347656	-246.972656
8628.931343	3.267176	35.938942	0.065343
8629.985387	3.267181	169.824219	-20.507812
8629.987389	3.267202	169.824219	-20.507812
8629.989388	3.266774	169.824219	-20.507812
8629.991388	3.266645	35.933090	0.094753
8631.007945	3.267166	6.250000	-266.894531
8631.009947	3.267781	6.250000	-266.894531
8631.011946	3.267614	6.250000	-266.894531
8631.013945	3.267125	6.250000	-266.894531
8631.015947	3.267077	35.937851	0.244261
8632.069998	3.267273	163.867187	-19.433594
8632.072001	3.267143	163.867187	-19.433594
8632.074002	3.266767	163.867187	-19.433594
8632.076000	3.266642	35.933067	0.096298
8633.096076	3.267750	9.082031	-265.722656
8633.098076	3.267152	9.082031	-265.722656
8633.100077	3.266962	35.936584	0.067880
8634.148611	3.265834	174.121094	-20.898437
8634.150612	3.267301	174.121094	-20.898437
8634.152612	3.267449	174.121094	-20.898437
8634.156611	3.266721	174.121094	-20.898437
8634.162610	3.266788	35.934669	0.096527
8635.172636	3.263477	8.496094	-277.636719
8635.174640	3.266696	8.496094	-277.636719
8635.176640	3.267304	8.496094	-277.636719
8635.178639	3.267106	8.496094	-277.636719
8635.180638	3.266728	8.496094	-277.636719
8635.182638	3.266638	35.933022	0.071077
8636.232686	3.267387	173.535156	-20.019531
8636.234687	3.267689	173.535156	-20.019531
8636.236688	3.267017	173.535156	-20.019531
8636.238688	3.266923	35.936150	0.096533
8637.258702	3.263970	9.570312	-278.710937
8637.260704	3.266833	9.570312	-278.710937
8637.262710	3.267285	9.570312	-278.710937
8637.264706	3.267040	9.570312	-278.710937
8637.266708	3.266671	9.570312	-278.710937
8637.268705	3.266587	35.932453	0.067043
8638.312746	3.267313	167.871094	-18.164062
8638.314747	3.267241	167.871094	-18.164062
8638.316747	3.266878	167.871094	-18.164062
8638.318749	3.266710	35.933811	0.098292
8639.350815	3.267053	8.886719	-287.890625
8639.352817	3.266948	8.886719	-287.890625
8639.354818	3.266961	35.936573	0.065556
8640.392845	3.266059	168.164062	-16.503906
8640.394845	3.267655	168.164062	-16.503906
8640.396846	3.267928	168.164062	-16.503906
8640.398845	3.267460	168.164062	-16.503906
8640.400846	3.267154	35.938694	0.097072
8641.428877	3.266509	10.546875	-286.523437
8641.430878	3.267385	10.546875	-286.523437
8641.432878	3.267334	10.546875	-286.523437
8641.434877	3.266883	10.546875	-286.523437
8641.436879	3.266733	35.934067	0.066893
8642.474937	3.264181	171.679687	-15.332031
8642.476939	3.267037	171.679687	-15.332031
8642.478939	3.267611	171.679687	-15.332031
8642.480938	3.267354	171.679687	-15.332031
8642.484937	3.266881	171.679687	-15.332031
8642.490936	3.266912	35.936035	0.097240
8643.517492	3.266967	13.378906	-271.679687
8643.519494	3.267410	13.378906	-271.679687
8643.521494	3.267133	13.378906	-271.679687
8643.523493	3.266720	35.933914	0.527541
8644.557546	3.265646	166.992187	-14.160156
8644.559548	3.267093	166.992187	-14.160156
8644.561546	3.267238	166.992187	-14.160156
8644.563547	3.266799	166.992187	-14.160156
8644.565550	3.266548	35.932026	0.101382
8645.599602	3.267728	9.960937	-296.484375
8645.601605	3.267723	9.960937	-296.484375
8645.603604	3.267212	9.960937	-296.484375
8645.605603	3.267042	35.937462	0.064815
8646.639631	3.264222	163.671875	-13.671875
8646.641632	3.266928	163.671875	-13.671875
8646.643637	3.267393	163.671875	-13.671875
8646.645643	3.267069	163.671875	-13.671875
8646.647643	3.266734	35.934074	0.102283
8647.679721	1.810815	11.230469	-288.476562
8647.681724	3.266745	11.230469	-288.476562
8647.683724	3.267363	11.230469	-288.476562
8647.685723	3.267191	11.230469	-288.476562
8647.687723	3.266745	11.230469	-288.476562
8647.689724	3.266710	35.933811	0.068867
8648.725787	3.266431	161.132812	-12.988281
8648.727789	3.267284	161.132812	-12.988281
8648.729789	3.267314	161.132812	-12.988281
8648.731789	3.266871	161.132812	-12.988281
8648.733789	3.266680	35.933483	0.099529
8649.763836	3.266045	11.132812	-291.894531
8649.765838	3.267114	11.132812	-291.894531
8649.767837	3.267324	11.132812	-291.894531
8649.769836	3.266865	11.132812	-291.894531
8649.771835	3.266642	35.933067	0.068999
8650.805910	3.265637	164.941406	-13.476562
8650.807913	3.267091	164.941406	-13.476562
8650.809914	3.267322	164.941406	-13.476562
8650.811914	3.266897	164.941406	-13.476562
8650.813914	3.266724	35.933960	0.100487
8651.847969	3.266414	10.253906	-300.390625
8651.849969	3.267300	10.253906	-300.390625
8651.851968	3.267219	10.253906	-300.390625
8651.853969	3.267255	10.253906	-300.390625
8651.855969	3.266653	35.933182	0.065846
8652.892085	3.267023	168.847656	-13.671875
8652.896103	3.267437	168.847656	-13.671875
8652.898105	3.266874	168.847656	-13.671875
8652.900106	3.266791	35.934704	0.449896
8653.932127	3.266902	9.570312	-306.542969
8653.934129	3.267661	9.570312	-306.542969
8653.936130	3.267557	9.570312	-306.542969
8653.938129	3.267006	9.570312	-306.542969
8653.940128	3.266888	35.935768	0.165860
8654.974172	3.266415	165.039062	-13.378906
8654.976173	3.267338	165.039062	-13.378906
8654.978172	3.267385	165.039062	-13.378906
8654.980175	3.266848	165.039062	-13.378906
8654.982173	3.266820	35.935024	0.098105
8656.014754	3.265140	10.742187	-301.855469
8656.016756	3.266952	10.742187	-301.855469
8656.018755	3.267346	10.742187	-301.855469
8656.020756	3.266942	10.742187	-301.855469
8656.022758	3.266640	35.933041	0.067295
8657.056796	3.267246	166.601562	-13.867187
8657.058800	3.267316	166.601562	-13.867187
8657.060798	3.266798	166.601562	-13.867187
8657.062798	3.266665	35.933311	0.097729
8658.095338	3.266580	9.863281	-308.105469
8658.097340	3.267489	9.863281	-308.105469
8658.103338	3.266877	9.863281	-308.105469
8658.105340	3.266836	9.863281	-308.105469
8658.107342	3.266819	35.935005	0.071435
8659.143347	3.267512	159.765625	-13.964844
8659.145349	3.267698	159.765625	-13.964844
8659.147351	3.267228	159.765625	-13.964844
8659.149350	3.267018	35.937195	0.099332
8660.179367	3.266557	8.691406	-312.695312
8660.181367	3.267408	8.691406	-312.695312
8660.183367	3.267226	8.691406	-312.695312
8660.185367	3.266836	8.691406	-312.695312
8660.187369	3.266695	35.933640	0.068726
8661.225418	3.266397	159.960937	-15.429687
8661.227420	3.267524	159.960937	-15.429687
8661.229420	3.267726	159.960937	-15.429687
8661.231421	3.267204	159.960937	-15.429687
8661.233420	3.266980	35.936779	0.094130
8662.259430	3.263463	7.617187	-319.335937
8662.261430	3.266895	7.617187	-319.335937
8662.263432	3.267539	7.617187	-319.335937
8662.265430	3.267408	7.617187	-319.335937
8662.267431	3.266968	7.617187	-319.335937
8662.269432	3.266782	35.934597	0.069178
8663.309486	3.266349	159.960937	-16.113281
8663.311489	3.267259	159.960937	-16.113281
8663.315487	3.266863	159.960937	-16.113281
8663.317488	3.266662	159.960937	-16.113281
8663.319489	3.266701	35.933712	0.096767
8664.337556	3.266145	10.937500	-297.949219
8664.339559	3.267159	10.937500	-297.949219
8664.341558	3.267118	10.937500	-297.949219
8664.343558	3.266689	10.937500	-297.949219
8664.347557	3.266566	35.932224	0.072425
8665.396582	3.267276	155.761719	-16.406250
8665.398586	3.267218	155.761719	-16.406250
8665.400584	3.266763	155.761719	-16.406250
8665.402586	3.266662	35.933285	0.096420
8666.422630	3.266414	6.542969	-320.996094
8666.424634	3.267208	6.542969	-320.996094
8666.426632	3.267266	6.542969	-320.996094
8666.428632	3.266776	6.542969	-320.996094
8666.430633	3.266609	35.932701	0.068242
8667.480693	3.267075	156.054687	-16.308594
8667.482694	3.267867	156.054687	-16.308594
8667.484694	3.267707	156.054687	-16.308594
8667.486694	3.267142	156.054687	-16.308594
8667.488694	3.267074	35.937817	0.207376
8668.504745	3.265674	6.152344	-318.164062
8668.506745	3.267208	6.152344	-318.164062
8668.508745	3.267476	6.152344	-318.164062
8668.510747	3.266932	6.152344	-318.164062
8668.512746	3.266828	35.935104	0.070077
8669.564782	3.267465	160.546875	-16.113281
8669.566784	3.267553	160.546875	-16.113281
8669.568782	3.267143	160.546875	-16.113281
8669.570783	3.266915	35.936062	0.095243
8670.590799	3.266796	6.347656	-309.765625
8670.592801	3.267342	6.347656	-309.765625
8670.594800	3.267148	6.347656	-309.765625
8670.596800	3.266770	6.347656	-309.765625
8670.598801	3.266685	35.933537	0.353617
8671.643802	2.777210	152.636719	-14.355469
8671.645804	3.267184	152.636719	-14.355469
8671.647802	3.267274	152.636719	-14.355469
8671.649805	3.266740	152.636719	-14.355469
8671.651803	3.266621	35.932835	0.097989
8672.673866	3.264664	4.394531	-314.941406
8672.675867	3.267279	4.394531	-314.941406
8672.677867	3.267780	4.394531	-314.941406
8672.679866	3.267765	4.394531	-314.941406
8672.681867	3.267094	35.938034	0.069451
8673.727913	3.267134	158.007812	-14.257812
8673.729915	3.267297	158.007812	-14.257812
8673.731916	3.266987	158.007812	-14.257812
8673.733916	3.266671	35.933384	0.098809
8674.755909	3.264975	1.855469	-322.460937
8674.757908	3.267011	1.855469	-322.460937
8674.759910	3.267456	1.855469	-322.460937
8674.761908	3.267061	1.855469	-322.460937
8674.763911	3.266733	35.934067	0.070608
8675.812036	3.267278	151.367187	-12.792969
8675.816035	3.266679	151.367187	-12.792969
8675.818037	3.266707	151.367187	-12.792969
8675.820045	3.266600	35.932606	0.312504
8676.844080	3.265527	4.589844	-311.523437
8676.846083	3.267125	4.589844	-311.523437
8676.848081	3.267350	4.589844	-311.523437
8676.850081	3.266923	4.589844	-311.523437
8676.852083	3.266732	35.934055	0.065683
8677.893050	3.267519	154.589844	-12.695312
8677.895050	3.267618	154.589844	-12.695312
8677.899049	3.267035	154.589844	-12.695312
8677.901050	3.267000	35.937000	0.098862
8678.927645	3.266718	5.859375	-315.625000
8678.929647	3.267670	5.859375	-315.625000
8678.931646	3.267622	5.859375	-315.625000
8678.933645	3.267168	5.859375	-315.625000
8678.935645	3.267049	35.937538	0.066136
8679.974212	3.267505	157.324219	-11.914062
8679.976214	3.267887	157.324219	-11.914062
8679.978213	3.267417	157.324219	-11.914062
8679.980214	3.267132	35.938454	0.096795
8681.013156	3.266426	7.714844	-322.265625
8681.015157	3.267734	7.714844	-322.265625
8681.017159	3.267856	7.714844	-322.265625
8681.019159	3.267297	7.714844	-322.265625
8681.021158	3.267159	35.938747	0.067090
8682.051185	3.265597	154.394531	-10.937500
8682.053187	3.267146	154.394531	-10.937500
8682.055188	3.267308	154.394531	-10.937500
8682.057188	3.266888	154.394531	-10.937500
8682.059188	3.266700	35.933704	0.098343
8683.095215	3.265001	8.203125	-330.175781
8683.097217	3.267270	8.203125	-330.175781
8683.099217	3.267752	8.203125	-330.175781
8683.101216	3.267274	8.203125	-330.175781
8683.103217	3.267017	35.937187	0.068239
8684.135311	3.266183	155.566406	-10.644531
8684.137312	3.267362	155.566406	-10.644531
8684.139319	3.267488	155.566406	-10.644531
8684.143325	3.266830	155.566406	-10.644531
8684.145326	3.266856	35.935413	0.094210
8685.182320	3.265428	7.714844	-339.648437
8685.184322	3.267552	7.714844	-339.648437
8685.186323	3.267911	7.714844	-339.648437
8685.188322	3.267434	7.714844	-339.648437
8685.190322	3.267184	35.939030	0.066344
8686.220389	3.266766	148.144531	-9.277344
8686.222392	3.267287	148.144531	-9.277344
8686.224391	3.266919	148.144531	-9.277344
8686.226391	3.266540	35.931942	0.587950
8687.266428	3.265841	11.914062	-325.488281
8687.268432	3.267365	11.914062	-325.488281
8687.270431	3.267691	11.914062	-325.488281
8687.272430	3.267147	11.914062	-325.488281
8687.276429	3.266840	35.935238	0.065210
8688.302508	3.266523	148.437500	-8.984375
8688.304510	3.267291	148.437500	-8.984375
8688.306509	3.267245	148.437500	-8.984375
8688.308510	3.266731	148.437500	-8.984375
8688.310510	3.266650	35.933155	0.097543
8689.348566	3.266862	11.523437	-329.882812
8689.350578	3.267354	11.523437	-329.882812
8689.352581	3.267034	11.523437	-329.882812
8689.354583	3.266647	11.523437	-329.882812
8689.356582	3.266617	35.932781	0.468495
8690.385582	3.265882	150.292969	-8.984375
8690.387584	3.267360	150.292969	-8.984375
8690.389584	3.267645	150.292969	-8.984375
8690.391586	3.267073	150.292969	-8.984375
8690.393584	3.266898	35.935883	0.097759
8691.429688	3.264992	9.765625	-338.867187
8691.433688	3.267352	9.765625	-338.867187
8691.435690	3.267015	9.765625	-338.867187
8691.437691	3.266739	35.934128	0.071118
8692.469728	3.267196	151.855469	-8.691406
8692.471733	3.267749	151.855469	-8.691406
8692.475736	3.267027	151.855469	-8.691406
8692.477738	3.266993	35.936920	0.483112
8693.516292	3.266210	10.351562	-337.597656
8693.518296	3.267243	10.351562	-337.597656
8693.520295	3.267396	10.351562	-337.597656
8693.522296	3.266880	10.351562	-337.597656
8693.524294	3.266669	35.933357	0.065216
8694.552812	3.267223	145.996094	-8.398437
8694.554814	3.267676	145.996094	-8.398437
8694.556815	3.267263	145.996094	-8.398437
8694.560811	3.266915	35.936069	0.097908
8695.598810	3.263695	7.812500	-351.367187
8695.600809	3.267115	7.812500	-351.367187
8695.602811	3.267773	7.812500	-351.367187
8695.604809	3.267680	7.812500	-351.367187
8695.606810	3.267145	7.812500	-351.367187
8695.608810	3.267045	35.937496	0.068044
8696.634840	3.265546	153.515625	-8.789062
8696.636844	3.267243	153.515625	-8.789062
8696.638842	3.267657	153.515625	-8.789062
8696.642840	3.266966	153.515625	-8.789062
8696.644843	3.266914	35.936054	0.096377
8697.680854	3.263980	10.351562	-340.722656
8697.682857	3.266710	10.351562	-340.722656
8697.684861	3.267271	10.351562	-340.722656
8697.688854	3.266562	10.351562	-340.722656
8697.690856	3.266503	10.351562	-340.722656
8697.692857	3.266530	35.931824	0.068343
8698.719408	3.267373	146.093750	-7.910156
8698.721412	3.267778	146.093750	-7.910156
8698.723414	3.267378	146.093750	-7.910156
8698.725418	3.267331	35.940643	0.100186
8699.765478	3.266727	8.105469	-350.488281
8699.769479	3.267112	8.105469	-350.488281
8699.773478	3.266710	8.105469	-350.488281
8699.775482	3.266704	35.933746	0.260011
8700.799496	3.266805	148.437500	-7.910156
8700.803497	3.267648	148.437500	-7.910156
8700.805499	3.267076	148.437500	-7.910156
8700.807498	3.266961	35.936573	0.121504
8701.847563	2.032793	7.324219	-355.664062
8701.849564	3.267086	7.324219	-355.664062
8701.851570	3.267492	7.324219	-355.664062
8701.853568	3.267210	7.324219	-355.664062
8701.855568	3.266903	35.935936	0.069160
8702.879580	3.264047	147.753906	-8.593750
8702.881583	3.267154	147.753906	-8.593750
8702.883581	3.267780	147.753906	-8.593750
8702.885582	3.267512	147.753906	-8.593750
8702.887581	3.267173	147.753906	-8.593750
8702.889584	3.267126	35.938381	0.100039
8703.935633	3.267570	7.031250	-342.968750
8703.937635	3.267026	7.031250	-342.968750
8703.939635	3.266944	35.936382	0.061986
8704.966201	3.265528	145.312500	-8.789062
8704.968203	3.267125	145.312500	-8.789062
8704.970202	3.267442	145.312500	-8.789062
8704.972203	3.266957	145.312500	-8.789062
8704.974202	3.266679	35.933472	0.097684
8706.010257	3.264912	5.371094	-342.773437
8706.012261	3.267235	5.371094	-342.773437
8706.014262	3.267789	5.371094	-342.773437
8706.016263	3.267418	5.371094	-342.773437
8706.018263	3.266998	35.936981	0.068540
8707.052343	3.267293	143.261719	-9.277344
8707.054344	3.267338	143.261719	-9.277344
8707.056344	3.266894	143.261719	-9.277344
8707.058343	3.266742	35.934166	0.097432
8708.094385	3.266762	1.269531	-356.054687
8708.096385	3.267644	1.269531	-356.054687
8708.098387	3.267602	1.269531	-356.054687
8708.100386	3.267054	1.269531	-356.054687
8708.102385	3.266936	35.936291	0.066581
8709.136442	3.266906	146.777344	-9.667969
8709.138445	3.267495	146.777344	-9.667969
8709.140445	3.267005	146.777344	-9.667969
8709.142445	3.266703	35.933731	0.538418
8710.176462	3.265999	-1.464844	-364.941406
8710.178465	3.267426	-1.464844	-364.941406
8710.180464	3.267770	-1.464844	-364.941406
8710.182464	3.267284	-1.464844	-364.941406
8710.184462	3.266968	35.936646	0.069147
8711.218515	3.265103	141.992187	-9.472656
8711.220517	3.267134	141.992187	-9.472656
8711.224515	3.266992	141.992187	-9.472656
8711.226517	3.266800	141.992187	-9.472656
8711.228518	3.266808	35.934891	0.096090
8712.258603	3.266158	-0.585937	-366.406250
8712.260605	3.267161	-0.585937	-366.406250
8712.262604	3.267384	-0.585937	-366.406250
8712.264604	3.266822	-0.585937	-366.406250
8712.266605	3.266632	35.932949	0.069907
8713.304649	3.266620	146.484375	-9.667969
8713.306653	3.267329	146.484375	-9.667969
8713.308652	3.267136	146.484375	-9.667969
8713.310652	3.266717	146.484375	-9.667969
8713.312650	3.266664	35.933304	0.095248
8714.340703	3.265228	-0.488281	-372.851562
8714.342704	3.267127	-0.488281	-372.851562
8714.344705	3.267498	-0.488281	-372.851562
8714.346706	3.267102	-0.488281	-372.851562
8714.348705	3.266874	35.935616	0.068949
8715.386737	3.267136	144.335937	-9.570312
8715.388740	3.267164	144.335937	-9.570312
8715.390739	3.267430	144.335937	-9.570312
8715.392739	3.266920	144.335937	-9.570312
8715.394739	3.266899	35.935894	0.390821
8716.423301	3.266309	2.929687	-364.843750
8716.425303	3.267276	2.929687	-364.843750
8716.427305	3.267316	2.929687	-364.843750
8716.429304	3.266891	2.929687	-364.843750
8716.431302	3.266748	35.934223	0.069447
8717.469905	3.266403	144.531250	-10.253906
8717.471911	3.267287	144.531250	-10.253906
8717.473911	3.267314	144.531250	-10.253906
8717.475914	3.266853	144.531250	-10.253906
8717.477913	3.266669	35.933357	0.093311
8718.508512	3.266511	1.367187	-379.003906
8718.510511	3.267317	1.367187	-379.003906
8718.512512	3.267280	1.367187	-379.003906
8718.514512	3.266740	1.367187	-379.003906
8718.516514	3.266633	35.932957	0.069904
8719.552563	3.266167	139.160156	-9.765625
8719.554565	3.267242	139.160156	-9.765625
8719.556565	3.267418	139.160156	-9.765625
8719.558565	3.266888	139.160156	-9.765625
8719.560564	3.266735	35.934082	0.097485
8720.592604	3.267226	2.832031	-377.832031
8720.594606	3.267374	2.832031	-377.832031
8720.596606	3.266886	2.832031	-377.832031
8720.598605	3.266730	35.934032	0.069834
8721.636691	3.265395	141.992187	-10.351562
8721.638692	3.267371	141.992187	-10.351562
8721.640692	3.267384	141.992187	-10.351562
8721.642691	3.267407	141.992187	-10.351562
8721.644692	3.266998	35.936981	0.094024
8722.674716	3.267545	5.859375	-374.023437
8722.676716	3.267724	5.859375	-374.023437
8722.678718	3.267149	5.859375	-374.023437
8722.680718	3.267032	35.937355	0.069912
8723.719285	3.266918	146.484375	-10.253906
8723.721285	3.267336	146.484375	-10.253906
8723.723288	3.266959	146.484375	-10.253906
8723.725290	3.266674	35.933411	0.096050
8724.757299	3.265900	4.980469	-379.687500
8724.759299	3.267229	4.980469	-379.687500
8724.761300	3.267407	4.980469	-379.687500
8724.763300	3.266906	4.980469	-379.687500
8724.765299	3.266707	35.933781	0.070044
8725.803326	3.267246	137.304687	-9.179687
8725.805329	3.267242	137.304687	-9.179687
8725.807329	3.266721	137.304687	-9.179687
8725.809328	3.266604	35.932648	0.093698
8726.839384	3.266557	5.175781	-378.613281
8726.841386	3.267569	5.175781	-378.613281
8726.843388	3.267654	5.175781	-378.613281
8726.845390	3.267144	5.175781	-378.613281
8726.847388	3.266940	35.936337	0.070752
8727.881419	3.263211	143.261719	-8.984375
8727.883420	3.266774	143.261719	-8.984375
8727.885422	3.267403	143.261719	-8.984375
8727.887421	3.267132	143.261719	-8.984375
8727.889422	3.266772	143.261719	-8.984375
8727.891421	3.266782	35.934597	0.098226
8728.923985	3.266151	6.835937	-375.781250
8728.925985	3.267412	6.835937	-375.781250
8728.927987	3.267691	6.835937	-375.781250
8728.929986	3.267060	6.835937	-375.781250
8728.931986	3.266872	35.935593	0.070155
8729.964601	3.266136	139.746094	-7.812500
8729.966604	3.267194	139.746094	-7.812500
8729.968604	3.267360	139.746094	-7.812500
8729.970606	3.266836	139.746094	-7.812500
8729.972607	3.266624	35.932861	0.098071
8731.004642	3.265738	6.250000	-377.539062
8731.006645	3.267134	6.250000	-377.539062
8731.008644	3.267365	6.250000	-377.539062
8731.010646	3.266861	6.250000	-377.539062
8731.012645	3.266769	35.934456	0.069870
8732.046730	3.265298	142.382812	-7.910156
8732.048730	3.267274	142.382812	-7.910156
8732.050730	3.267568	142.382812	-7.910156
8732.052730	3.267179	142.382812	-7.910156
8732.054731	3.266893	35.935822	0.098280
8733.093328	3.266681	8.105469	-374.121094
8733.095329	3.267511	8.105469	-374.121094
8733.097328	3.267403	8.105469	-374.121094
8733.099329	3.266928	8.105469	-374.121094
8733.101329	3.266867	35.935539	0.067759
8734.129362	3.264816	140.527344	-6.933594
8734.131369	3.266998	140.527344	-6.933594
8734.133372	3.267435	140.527344	-6.933594
8734.135372	3.267022	140.527344	-6.933594
8734.137373	3.266837	35.935207	0.099967
8735.177417	3.267097	4.882812	-386.328125
8735.179419	3.267325	4.882812	-386.328125
8735.181419	3.266811	4.882812	-386.328125
8735.183419	3.266722	35.933941	0.070077
8736.221488	3.264979	140.625000	-6.152344
8736.223490	3.267055	140.625000	-6.152344
8736.225490	3.267413	140.625000	-6.152344
8736.227493	3.267051	140.625000	-6.152344
8736.229501	3.266755	35.934307	0.095857
8737.263493	3.267015	8.105469	-376.757812
8737.265497	3.266682	8.105469	-376.757812
8737.267496	3.266650	35.933155	0.463437
8738.293527	3.263906	139.648437	-6.250000
8738.295527	3.267271	139.648437	-6.250000
8738.299526	3.267746	139.648437	-6.250000
8738.301528	3.267184	139.648437	-6.250000
8738.303528	3.267155	35.938709	0.099156
8739.339558	3.266635	5.078125	-386.816406
8739.343560	3.267446	5.078125	-386.816406
8739.345562	3.266969	5.078125	-386.816406
8739.347559	3.266867	35.935539	0.070334
8740.379623	3.266552	133.105469	-5.957031
8740.381626	3.267739	133.105469	-5.957031
8740.383627	3.267857	133.105469	-5.957031
8740.385625	3.267268	133.105469	-5.957031
8740.387626	3.267276	35.940041	0.098641
8741.423666	3.266550	3.906250	-392.187500
8741.425668	3.267388	3.906250	-392.187500
8741.427668	3.267185	3.906250	-392.187500
8741.429670	3.266821	3.906250	-392.187500
8741.431670	3.266732	35.934048	0.130812
8742.463682	3.266620	139.062500	-6.542969
8742.465683	3.267611	139.062500	-6.542969
8742.467685	3.267627	139.062500	-6.542969
8742.469686	3.267094	139.062500	-6.542969
8742.471684	3.267021	35.937229	0.094289
8743.505705	3.263397	4.492187	-390.429687
8743.507708	3.266639	4.492187	-390.429687
8743.509708	3.267286	4.492187	-390.429687
8743.511708	3.267048	4.492187	-390.429687
8743.513708	3.266624	4.492187	-390.429687
8743.517706	3.266561	35.932167	0.071129
8744.547750	3.266582	134.179687	-6.445312
8744.549752	3.267413	134.179687	-6.445312
8744.551750	3.267248	134.179687	-6.445312
8744.553750	3.266870	134.179687	-6.445312
8744.555751	3.266774	35.934509	0.095099
8745.587822	3.266172	4.492187	-391.015625
8745.589829	3.267216	4.492187	-391.015625
8745.591823	3.267355	4.492187	-391.015625
8745.593826	3.266811	4.492187	-391.015625
8745.595825	3.266642	35.933067	0.072234
8746.629893	3.265681	135.253906	-6.835937
8746.631896	3.267175	135.253906	-6.835937
8746.633895	3.267442	135.253906	-6.835937
8746.635896	3.266825	135.253906	-6.835937
8746.637896	3.266676	35.933437	0.094937
8747.671985	3.265721	2.050781	-400.195312
8747.673986	3.267560	2.050781	-400.195312
8747.675987	3.267848	2.050781	-400.195312
8747.679985	3.267150	2.050781	-400.195312
8747.681988	3.267067	35.937737	0.069968
